Name: Natrojarosite NaFe_3^3+(SO_4)_2(OH)_6
Type: Mineral
Class: Sulfates
Subclass: 
Particle Size: 125-500um
Sample No.: SO-7C
Owner: JPL
Wavelength range: IR
Origin: USA, Utah, Tooele County, Gold Hill
Collected by Ward's
Description: 





Measurement: Hemispherical reflectance
First Column: X
Second Column: Y
X Units:  Wavelength (micrometers)
Y Units:  Reflectance (percent)
First X Value: 15.3853
Last X Value: 2.00032
Number of X Values: 2256
Additional information: so07ca.txt
 
15.3853	0.534358
15.3397	0.347821
15.2945	0.488993
15.2495	0.461644
15.2048	0.627232
15.1603	0.694208
15.1161	0.694064
15.0722	0.577429
15.0285	0.637551
14.9851	0.808383
14.9419	0.858516
14.8989	0.773457
14.8563	0.59901
14.8138	0.647468
14.7716	0.687443
14.7296	0.493429
14.6879	0.39138
14.6464	0.374633
14.6052	0.425809
14.5641	0.606573
14.5233	0.603255
14.4828	0.479129
14.4424	0.367504
14.4023	0.353048
14.3624	0.457068
14.3227	0.607003
14.2833	0.597343
14.244	0.49776
14.205	0.641687
14.1662	0.640082
14.1276	0.436604
14.0892	0.436648
14.051	0.624841
14.0131	0.465509
13.9753	0.317897
13.9377	0.555017
13.9004	0.803449
13.8632	0.845963
13.8262	0.751769
13.7895	0.710773
13.7529	0.840007
13.7165	0.948662
13.6803	1.04303
13.6443	1.05876
13.6085	1.00197
13.5729	0.970582
13.5374	0.925921
13.5022	0.846311
13.4671	0.952708
13.4322	1.1396
13.3975	1.15756
13.363	1.1246
13.3286	1.23919
13.2944	1.28703
13.2604	1.17033
13.2266	1.08684
13.193	1.24592
13.1595	1.47795
13.1262	1.53921
13.093	1.53891
13.06	1.57659
13.0272	1.61813
12.9946	1.67064
12.9621	1.69855
12.9298	1.66866
12.8976	1.77082
12.8656	1.72981
12.8337	1.63367
12.8021	1.604
12.7705	1.68203
12.7391	1.7215
12.7079	1.78877
12.6769	1.85623
12.6459	1.79833
12.6152	1.72252
12.5845	1.71387
12.5541	1.79658
12.5238	1.73778
12.4936	1.57577
12.4635	1.5216
12.4337	1.51774
12.4039	1.50397
12.3743	1.56832
12.3448	1.72595
12.3155	1.70599
12.2863	1.63982
12.2573	1.55492
12.2284	1.62764
12.1996	1.70571
12.171	1.63142
12.1425	1.6922
12.1141	1.73511
12.0859	1.68949
12.0578	1.69801
12.0298	1.80007
12.0019	1.83199
11.9742	1.86079
11.9466	1.94782
11.9192	2.04998
11.8918	2.06984
11.8646	2.12842
11.8375	2.16204
11.8106	2.24591
11.7837	2.28099
11.757	2.21733
11.7304	2.20774
11.7039	2.33536
11.6776	2.36177
11.6513	2.37595
11.6252	2.2899
11.5992	2.29478
11.5733	2.39705
11.5475	2.38624
11.5219	2.31472
11.4963	2.39677
11.4709	2.63199
11.4455	2.73961
11.4203	2.7136
11.3952	2.66326
11.3702	2.65669
11.3454	2.69628
11.3206	2.65384
11.2959	2.65662
11.2714	2.65982
11.2469	2.77373
11.2226	2.90223
11.1983	2.9453
11.1742	2.91286
11.1502	2.97729
11.1263	3.0543
11.1024	3.02072
11.0787	3.16515
11.0551	3.23859
11.0316	3.19519
11.0081	3.1926
10.9848	3.4037
10.9616	3.5804
10.9385	3.58808
10.9154	3.53899
10.8925	3.55068
10.8697	3.71078
10.8469	3.79341
10.8243	3.77004
10.8017	3.93822
10.7793	4.07202
10.7569	4.14658
10.7346	4.2081
10.7125	4.29491
10.6904	4.36099
10.6684	4.47768
10.6465	4.5657
10.6247	4.64401
10.6029	4.71097
10.5813	4.78441
10.5597	4.80411
10.5383	4.80189
10.5169	4.8458
10.4956	4.93286
10.4744	4.9953
10.4533	5.01566
10.4323	4.94979
10.4113	5.004
10.3904	5.10293
10.3697	5.16229
10.349	5.24755
10.3284	5.37426
10.3078	5.44652
10.2874	5.4942
10.267	5.54211
10.2467	5.62074
10.2265	5.61928
10.2064	5.61825
10.1863	5.60691
10.1663	5.50276
10.1464	5.40434
10.1266	5.26292
10.1069	5.11038
10.0872	4.96006
10.0676	4.88553
10.0481	4.82219
10.0287	4.63079
10.0093	4.44396
9.99005	4.26584
9.97084	4.10772
9.95169	3.96964
9.93263	3.95024
9.91364	3.99776
9.89472	3.89449
9.87587	3.89729
9.8571	4.07493
9.83839	4.39142
9.81976	4.68828
9.80119	4.70148
9.78271	4.59933
9.76428	4.5325
9.74592	4.52781
9.72764	4.54421
9.70943	4.44381
9.69128	4.33287
9.6732	4.2103
9.65518	3.87459
9.63724	3.52287
9.61935	3.08561
9.60155	2.65613
9.5838	2.26895
9.56611	1.83152
9.5485	1.50397
9.53094	1.24332
9.51345	1.00753
9.49604	0.994523
9.47867	1.06928
9.46137	1.19142
9.44414	1.20211
9.42697	1.17532
9.40986	1.26717
9.39281	1.58752
9.37583	1.80668
9.35891	1.93161
9.34204	2.11518
9.32524	2.38958
9.3085	2.58554
9.29182	2.742
9.27519	2.85774
9.25863	2.88771
9.24213	2.96898
9.22568	3.1477
9.2093	3.26414
9.19297	3.49848
9.17669	4.11844
9.16048	4.77601
9.14433	5.22245
9.12823	5.41707
9.11218	5.51834
9.0962	5.66121
9.08027	5.78401
9.06439	5.78481
9.04858	5.89195
9.03281	6.03132
9.0171	6.18104
9.00145	6.21281
8.98585	6.17104
8.9703	6.19592
8.9548	6.11141
8.93937	5.88781
8.92398	5.76274
8.90865	5.70582
8.89337	5.3303
8.87814	4.9148
8.86296	4.55567
8.84784	4.20499
8.83277	3.90115
8.81774	3.6749
8.80277	3.46352
8.78786	3.17279
8.77298	2.85993
8.75816	2.64702
8.7434	2.59566
8.72868	2.39458
8.714	2.22131
8.69938	2.05706
8.68481	1.82237
8.67029	1.82339
8.65581	1.82211
8.64139	1.74394
8.62701	1.75255
8.61268	1.61971
8.5984	1.50763
8.58416	1.47248
8.56997	1.39861
8.55583	1.39176
8.54174	1.40594
8.52769	1.42366
8.51368	1.36358
8.49973	1.32569
8.48582	1.32305
8.47195	1.3609
8.45813	1.46902
8.44436	1.45148
8.43062	1.45705
8.41693	1.6827
8.4033	1.72699
8.3897	1.73652
8.37614	1.90599
8.36264	1.94774
8.34917	2.01216
8.33574	2.14048
8.32236	2.23114
8.30903	2.21616
8.29573	2.20773
8.28248	2.19127
8.26927	2.14925
8.2561	2.23514
8.24298	2.23136
8.2299	2.21607
8.21685	2.18412
8.20385	2.00222
8.19089	1.82702
8.17797	1.85677
8.16509	1.91168
8.15225	1.97128
8.13946	1.94614
8.1267	1.81615
8.11398	1.77398
8.10131	1.90053
8.08867	1.94624
8.07606	1.86707
8.0635	1.73104
8.05099	1.72238
8.0385	1.83391
8.02606	1.85318
8.01366	1.85056
8.00129	1.86546
7.98896	1.91105
7.97667	1.98235
7.96442	2.00753
7.9522	2.01949
7.94002	2.04362
7.92788	2.05716
7.91578	2.11106
7.90371	2.1526
7.89168	2.27049
7.87969	2.49163
7.86773	2.57165
7.85581	2.54008
7.84392	2.55667
7.83207	2.74702
7.82026	2.85392
7.80849	2.92207
7.79674	3.05739
7.78503	3.07816
7.77337	3.15459
7.76173	3.31567
7.75012	3.50607
7.73856	3.67632
7.72703	3.74578
7.71553	3.76703
7.70406	3.8059
7.69263	3.90815
7.68123	4.02336
7.66987	4.05885
7.65855	4.03703
7.64725	3.98991
7.63598	4.09079
7.62475	4.13444
7.61356	4.19067
7.60239	4.33163
7.59126	4.3174
7.58017	4.39118
7.5691	4.45686
7.55806	4.40704
7.54707	4.42373
7.5361	4.53005
7.52516	4.59357
7.51425	4.66008
7.50338	4.68518
7.49253	4.69956
7.48172	4.77144
7.47094	4.81929
7.46019	4.85478
7.44947	4.89451
7.43879	4.90699
7.42813	4.91209
7.4175	4.94135
7.4069	4.89829
7.39634	4.83874
7.3858	4.88533
7.37529	5.0115
7.36482	5.11192
7.35437	5.17192
7.34396	5.32373
7.33357	5.40726
7.32321	5.34062
7.31288	5.33333
7.30258	5.37953
7.29231	5.34838
7.28207	5.38932
7.27185	5.45454
7.26167	5.44511
7.25152	5.43575
7.24139	5.50534
7.23129	5.57644
7.22122	5.59047
7.21117	5.56006
7.20116	5.58543
7.19117	5.5979
7.18121	5.6827
7.17128	5.72046
7.16137	5.65629
7.1515	5.58624
7.14164	5.5604
7.13182	5.61694
7.12203	5.63179
7.11225	5.56086
7.10251	5.45292
7.0928	5.41514
7.08311	5.3176
7.07344	5.18853
7.06381	5.09881
7.0542	5.02976
7.04461	4.88305
7.03506	4.75598
7.02552	4.7513
7.01601	4.79852
7.00653	4.83795
6.99708	4.96095
6.98765	5.10953
6.97824	5.17466
6.96886	5.3167
6.95951	5.63181
6.95018	5.77907
6.94087	5.86759
6.9316	6.04665
6.92234	6.21978
6.91311	6.32732
6.90391	6.40348
6.89473	6.52017
6.88557	6.67787
6.87644	6.72463
6.86733	6.89698
6.85824	7.0453
6.84918	7.03396
6.84015	7.04526
6.83114	7.07517
6.82215	7.19787
6.81319	7.26901
6.80424	7.37815
6.79532	7.60007
6.78643	7.74513
6.77756	7.80333
6.76871	7.90758
6.75989	8.07731
6.75109	8.2339
6.74231	8.44027
6.73355	8.70555
6.72482	8.8894
6.71611	9.02392
6.70742	9.12384
6.69875	9.26782
6.69011	9.60906
6.68149	9.88586
6.67289	9.93114
6.66431	9.9858
6.65576	10.084
6.64722	10.3436
6.63871	10.6137
6.63022	10.592
6.62175	10.6386
6.61331	10.7434
6.60488	10.8535
6.59648	11.0257
6.5881	11.0714
6.57974	11.2516
6.5714	11.3297
6.56308	11.2441
6.55478	11.3796
6.54651	11.4181
6.53825	11.2773
6.53001	11.2223
6.5218	11.3699
6.51361	11.3214
6.50544	11.2444
6.49729	11.464
6.48915	11.5099
6.48104	11.3019
6.47295	11.1881
6.46488	11.132
6.45683	11.1312
6.4488	11.2056
6.44079	11.2328
6.4328	11.246
6.42482	11.3237
6.41687	11.5812
6.40894	11.5161
6.40103	11.2301
6.39314	11.215
6.38526	11.1917
6.37741	11.204
6.36957	11.2091
6.36176	11.075
6.35396	11.0335
6.34618	11.1484
6.33843	11.0515
6.33069	10.8553
6.32297	10.7539
6.31527	10.7803
6.30758	10.8495
6.29992	10.9041
6.29227	10.9086
6.28465	10.9168
6.27704	11.0235
6.26945	11.1495
6.26188	11.1504
6.25432	11.1558
6.24679	11.2469
6.23927	11.2902
6.23177	11.4076
6.22429	11.467
6.21683	11.5127
6.20938	11.5352
6.20195	11.4156
6.19454	11.3357
6.18715	11.414
6.17978	11.4015
6.17242	11.2118
6.16508	11.14
6.15776	11.0449
6.15045	10.9016
6.14317	10.79
6.1359	10.5854
6.12864	10.3449
6.12141	10.2655
6.11419	10.3051
6.10699	10.1219
6.0998	10.0239
6.09263	10.158
6.08549	10.2967
6.07835	10.5465
6.07123	10.7894
6.06413	10.9099
6.05705	11.131
6.04998	11.4339
6.04293	11.2771
6.0359	11.0977
6.02888	11.1881
6.02187	11.3469
6.01489	11.502
6.00792	11.5643
6.00096	11.6635
5.99403	11.9698
5.98711	12.2858
5.9802	12.4851
5.97331	12.7368
5.96644	12.9546
5.95958	13.0815
5.95274	13.2798
5.94591	13.4819
5.9391	13.8266
5.9323	13.8743
5.92552	13.8092
5.91876	13.9716
5.91201	14.0816
5.90528	14.3491
5.89856	14.7619
5.89186	14.8106
5.88517	14.9449
5.8785	15.0356
5.87184	14.7705
5.8652	14.7493
5.85857	14.7163
5.85196	14.7472
5.84536	14.8914
5.83878	14.9766
5.83221	15.0183
5.82566	15.2153
5.81912	15.3566
5.81259	15.3027
5.80608	15.3329
5.79959	15.4417
5.79311	15.5658
5.78665	15.626
5.78019	15.7764
5.77376	16.066
5.76734	16.2959
5.76093	16.1133
5.75453	15.9595
5.74815	16.0203
5.74179	16.0273
5.73543	16.0283
5.7291	16.0453
5.72277	16.1272
5.71646	16.2288
5.71017	16.2804
5.70389	16.1939
5.69762	16.1289
5.69136	16.1294
5.68513	16.1683
5.6789	16.3033
5.67268	16.4258
5.66648	16.4212
5.6603	16.4992
5.65413	16.496
5.64797	16.5173
5.64182	16.6537
5.63569	16.6275
5.62957	16.6572
5.62347	16.6702
5.61737	16.6544
5.61129	16.6387
5.60522	16.662
5.59917	16.7089
5.59313	16.7818
5.5871	16.9612
5.58109	17.1401
5.57509	17.2219
5.5691	17.2625
5.56312	17.3272
5.55716	17.4294
5.55121	17.5513
5.54528	17.6558
5.53935	17.7846
5.53344	17.9525
5.52754	18.1846
5.52166	18.3555
5.51578	18.4454
5.50992	18.522
5.50407	18.6427
5.49823	18.797
5.49241	18.9804
5.4866	19.1769
5.4808	19.378
5.47501	19.4485
5.46923	19.625
5.46347	19.8148
5.45772	19.9165
5.45198	20.0067
5.44625	20.1493
5.44054	20.2538
5.43484	20.3877
5.42914	20.5514
5.42347	20.7323
5.4178	20.7622
5.41214	20.762
5.4065	20.8245
5.40087	20.9439
5.39525	21.0189
5.38964	21.0599
5.38404	21.1476
5.37846	21.1997
5.37288	21.2553
5.36732	21.351
5.36177	21.4328
5.35623	21.5078
5.35071	21.628
5.34519	21.6721
5.33968	21.6266
5.33419	21.643
5.32871	21.7147
5.32324	21.7366
5.31778	21.7405
5.31233	21.7412
5.30689	21.7379
5.30147	21.7137
5.29605	21.7404
5.29065	21.7692
5.28525	21.6778
5.27987	21.6581
5.2745	21.6477
5.26914	21.666
5.26379	21.6012
5.25845	21.5206
5.25312	21.4191
5.24781	21.3701
5.2425	21.3019
5.23721	21.1967
5.23192	21.081
5.22665	20.9338
5.22138	20.7573
5.21613	20.728
5.21089	20.591
5.20566	20.3799
5.20044	20.2878
5.19522	20.1349
5.19002	19.8694
5.18483	19.6878
5.17965	19.5418
5.17448	19.2823
5.16933	18.9849
5.16418	18.7006
5.15904	18.4357
5.15391	18.2345
5.14879	17.942
5.14368	17.5802
5.13859	17.2235
5.1335	16.8048
5.12842	16.3228
5.12335	15.8772
5.1183	15.4044
5.11325	14.8727
5.10821	14.2318
5.10318	13.5863
5.09817	12.9837
5.09316	12.4106
5.08816	11.9386
5.08317	11.5413
5.07819	11.0871
5.07322	10.6381
5.06826	10.2363
5.06331	9.72387
5.05837	9.17754
5.05344	8.67129
5.04852	8.14107
5.04361	7.69143
5.03871	7.323
5.03382	6.9602
5.02894	6.72876
5.02406	6.73527
5.0192	6.89434
5.01435	7.07998
5.0095	7.33799
5.00467	7.71462
4.99984	8.18185
4.99502	8.5756
4.99021	8.95074
4.98542	9.31661
4.98063	9.61424
4.97585	9.91591
4.97108	10.04
4.96632	10.0797
4.96156	10.1341
4.95682	10.1378
4.95209	10.1472
4.94736	10.2006
4.94264	10.1013
4.93794	9.93392
4.93324	9.7518
4.92855	9.51335
4.92387	9.15255
4.9192	8.69697
4.91453	8.25394
4.90988	7.78514
4.90524	7.40458
4.9006	7.07472
4.89597	6.74144
4.89135	6.60895
4.88674	6.54973
4.88214	6.57568
4.87755	6.73991
4.87296	6.99038
4.86839	7.30199
4.86382	7.59426
4.85926	7.88193
4.85471	8.09396
4.85017	8.34548
4.84564	8.68533
4.84111	9.02196
4.8366	9.28693
4.83209	9.59762
4.82759	9.93428
4.8231	10.1497
4.81862	10.3467
4.81415	10.5429
4.80968	10.7058
4.80522	10.8037
4.80077	10.8832
4.79633	10.8411
4.7919	10.6754
4.78747	10.6004
4.78306	10.6187
4.77865	10.6566
4.77425	10.8885
4.76986	11.229
4.76547	11.4856
4.7611	11.6548
4.75673	11.9153
4.75237	12.1918
4.74802	12.4105
4.74367	12.5463
4.73934	12.5122
4.73501	12.4384
4.73069	12.3739
4.72638	12.2498
4.72207	12.0382
4.71777	11.958
4.71348	12.0994
4.7092	12.2262
4.70493	12.3086
4.70066	12.4169
4.69641	12.587
4.69216	12.7896
4.68791	13.0399
4.68368	13.2561
4.67945	13.4731
4.67523	13.701
4.67102	13.8891
4.66682	14.0117
4.66262	14.1616
4.65843	14.3303
4.65425	14.4779
4.65007	14.5521
4.64591	14.589
4.64175	14.5545
4.6376	14.6063
4.63345	14.6441
4.62932	14.637
4.62519	14.7676
4.62106	14.8561
4.61695	14.9172
4.61284	14.9986
4.60874	15.1047
4.60465	15.1605
4.60056	15.1318
4.59648	15.2483
4.59241	15.3735
4.58835	15.3722
4.58429	15.3524
4.58024	15.411
4.5762	15.3973
4.57216	15.2905
4.56814	15.2184
4.56411	15.1476
4.5601	15.0154
4.55609	14.9115
4.55209	14.9111
4.5481	15.0407
4.54411	15.2049
4.54013	15.4696
4.53616	15.7452
4.5322	15.9601
4.52824	16.2709
4.52429	16.618
4.52034	16.9572
4.51641	17.2652
4.51247	17.5447
4.50855	17.8491
4.50463	18.0923
4.50072	18.3145
4.49682	18.5201
4.49292	18.6572
4.48903	18.8089
4.48515	18.9002
4.48127	18.9852
4.4774	19.1071
4.47354	19.1845
4.46968	19.3468
4.46584	19.5764
4.46199	19.7433
4.45815	19.9303
4.45432	20.1413
4.4505	20.378
4.44668	20.6365
4.44287	20.8823
4.43907	21.0861
4.43527	21.2771
4.43148	21.4375
4.4277	21.6147
4.42392	21.7215
4.42015	21.8114
4.41638	22.0277
4.41262	22.1077
4.40887	22.0703
4.40513	22.2412
4.40139	22.4588
4.39765	22.5366
4.39393	22.5454
4.39021	22.5809
4.38649	22.7548
4.38278	22.9132
4.37908	22.9919
4.37539	23.0527
4.3717	23.1335
4.36801	23.1926
4.36434	23.212
4.36067	23.2926
4.357	23.3704
4.35335	23.4325
4.34969	23.5355
4.34605	23.5653
4.34241	23.5854
4.33877	23.6339
4.33514	23.6579
4.33152	23.698
4.32791	23.6718
4.3243	23.6304
4.32069	23.6021
4.3171	23.5858
4.31351	23.5658
4.30992	23.5538
4.30634	23.5972
4.30277	23.6388
4.2992	23.6796
4.29564	23.7465
4.29208	23.7954
4.28853	23.7806
4.28499	23.8218
4.28145	23.8925
4.27792	24.0207
4.27439	24.144
4.27087	24.222
4.26735	24.3243
4.26384	24.4996
4.26034	24.7156
4.25684	24.8958
4.25335	24.9414
4.24986	24.9604
4.24638	25.0439
4.24291	25.1719
4.23944	25.2901
4.23598	25.3011
4.23252	25.3702
4.22906	25.5303
4.22562	25.7061
4.22218	25.8139
4.21874	25.902
4.21531	26.0954
4.21189	26.1881
4.20847	26.3195
4.20506	26.4467
4.20165	26.578
4.19825	26.7353
4.19485	26.8615
4.19146	26.8768
4.18807	26.8733
4.18469	26.971
4.18132	27.0159
4.17795	27.0801
4.17458	27.2452
4.17123	27.3096
4.16787	27.3513
4.16453	27.3563
4.16118	27.3805
4.15785	27.4122
4.15451	27.4341
4.15119	27.4609
4.14787	27.5097
4.14455	27.5213
4.14124	27.5521
4.13794	27.5984
4.13464	27.6024
4.13134	27.5701
4.12805	27.6369
4.12477	27.6983
4.12149	27.6943
4.11822	27.6698
4.11495	27.6675
4.11168	27.7019
4.10843	27.731
4.10517	27.7227
4.10192	27.7511
4.09868	27.7445
4.09545	27.7517
4.09221	27.7991
4.08899	27.7561
4.08576	27.6789
4.08255	27.7064
4.07933	27.733
4.07613	27.7298
4.07292	27.7678
4.06973	27.8129
4.06654	27.8104
4.06335	27.7564
4.06017	27.788
4.05699	27.7631
4.05382	27.7155
4.05065	27.747
4.04749	27.7116
4.04433	27.7778
4.04118	27.7918
4.03803	27.6814
4.03489	27.6606
4.03175	27.6887
4.02862	27.7173
4.02549	27.6554
4.02237	27.5377
4.01925	27.5002
4.01614	27.4255
4.01303	27.3385
4.00993	27.2749
4.00683	27.1329
4.00373	26.9673
4.00064	26.9477
3.99756	27.0571
3.99448	27.1172
3.9914	27.2174
3.98833	27.2371
3.98527	27.2118
3.98221	27.2335
3.97915	27.2523
3.9761	27.2928
3.97305	27.3712
3.97001	27.417
3.96697	27.4215
3.96394	27.4474
3.96091	27.3639
3.95789	27.3238
3.95487	27.3611
3.95186	27.3362
3.94885	27.2379
3.94584	27.2299
3.94284	27.222
3.93984	27.1469
3.93685	27.1049
3.93386	27.0865
3.93088	27.1381
3.9279	27.1673
3.92493	27.0342
3.92196	26.8947
3.919	26.8429
3.91604	26.7749
3.91308	26.763
3.91013	26.7865
3.90718	26.7277
3.90424	26.5999
3.9013	26.5476
3.89837	26.5793
3.89544	26.4656
3.89252	26.3199
3.8896	26.3106
3.88668	26.3322
3.88377	26.3465
3.88086	26.2664
3.87796	26.1474
3.87506	26.1423
3.87217	26.061
3.86928	25.9392
3.86639	25.911
3.86351	25.8217
3.86064	25.7445
3.85776	25.7222
3.8549	25.7741
3.85203	25.7666
3.84917	25.6164
3.84631	25.5746
3.84346	25.5196
3.84062	25.4438
3.83777	25.4415
3.83494	25.3675
3.8321	25.2519
3.82927	25.1605
3.82644	25.1062
3.82362	25.1237
3.82081	25.0696
3.81799	24.9968
3.81518	24.9479
3.81238	24.837
3.80958	24.8481
3.80678	24.8025
3.80399	24.7043
3.8012	24.7238
3.79841	24.6891
3.79563	24.5692
3.79286	24.4661
3.79008	24.4475
3.78731	24.319
3.78455	24.1704
3.78179	24.1453
3.77903	24.1401
3.77628	24.0772
3.77353	24.0746
3.77079	24.0639
3.76805	24.0014
3.76531	23.9509
3.76258	23.8532
3.75985	23.8029
3.75713	23.6998
3.7544	23.5684
3.75169	23.4954
3.74898	23.412
3.74627	23.3272
3.74356	23.3695
3.74086	23.2942
3.73816	23.2049
3.73547	23.1233
3.73278	23.0184
3.7301	22.9362
3.72741	22.8546
3.72474	22.809
3.72206	22.8039
3.71939	22.7679
3.71673	22.683
3.71406	22.5825
3.71141	22.5117
3.70875	22.4157
3.7061	22.3711
3.70345	22.2489
3.70081	22.1516
3.69817	22.147
3.69553	22.0674
3.6929	21.9526
3.69027	21.945
3.68765	21.8585
3.68503	21.8814
3.68241	21.8258
3.6798	21.6708
3.67719	21.475
3.67458	21.3532
3.67198	21.3296
3.66938	21.3874
3.66678	21.3126
3.66419	21.139
3.66161	21.0466
3.65902	20.9573
3.65644	20.8886
3.65387	20.8786
3.65129	20.8571
3.64872	20.7033
3.64616	20.6375
3.64359	20.651
3.64103	20.5408
3.63848	20.4711
3.63593	20.508
3.63338	20.4687
3.63084	20.3406
3.6283	20.1907
3.62576	20.1057
3.62322	20.051
3.62069	19.9841
3.61817	19.9078
3.61564	19.8474
3.61312	19.8356
3.61061	19.8067
3.6081	19.743
3.60559	19.7022
3.60308	19.6046
3.60058	19.5645
3.59808	19.5256
3.59558	19.4019
3.59309	19.4139
3.59061	19.3529
3.58812	19.1801
3.58564	19.0483
3.58316	18.9677
3.58069	18.9821
3.57822	18.9141
3.57575	18.8418
3.57328	18.7609
3.57082	18.771
3.56836	18.775
3.56591	18.6745
3.56346	18.581
3.56101	18.4611
3.55857	18.3969
3.55613	18.3582
3.55369	18.3406
3.55126	18.2635
3.54883	18.1859
3.5464	18.1278
3.54397	18.063
3.54155	18.0682
3.53914	18.0198
3.53672	17.9081
3.53431	17.822
3.5319	17.8418
3.5295	17.6997
3.5271	17.534
3.5247	17.5754
3.52231	17.5999
3.51991	17.5662
3.51753	17.514
3.51514	17.4748
3.51276	17.4575
3.51038	17.4163
3.50801	17.3124
3.50563	17.2334
3.50327	17.1533
3.5009	16.9994
3.49854	16.961
3.49618	16.9813
3.49382	16.9591
3.49147	16.8972
3.48912	16.7961
3.48677	16.7383
3.48443	16.7442
3.48209	16.7397
3.47975	16.6628
3.47742	16.6058
3.47509	16.5359
3.47276	16.4644
3.47044	16.4562
3.46812	16.4801
3.4658	16.4387
3.46348	16.3369
3.46117	16.2976
3.45886	16.2557
3.45656	16.0968
3.45425	16.0158
3.45195	15.9225
3.44966	15.8427
3.44736	15.7971
3.44507	15.8248
3.44279	15.8407
3.4405	15.7466
3.43822	15.6558
3.43594	15.5944
3.43367	15.644
3.43139	15.6319
3.42912	15.545
3.42686	15.5141
3.42459	15.5236
3.42233	15.5413
3.42007	15.4962
3.41782	15.4262
3.41557	15.4296
3.41332	15.3682
3.41108	15.2782
3.40883	15.2234
3.40659	15.1732
3.40435	15.2078
3.40212	15.1316
3.39989	15.0383
3.39766	15.0753
3.39544	15.0145
3.39322	14.9607
3.391	14.9113
3.38878	14.8987
3.38657	14.9208
3.38436	14.8578
3.38215	14.7845
3.37994	14.7957
3.37774	14.637
3.37554	14.513
3.37335	14.5757
3.37115	14.5576
3.36896	14.3522
3.36678	14.2593
3.36459	14.2704
3.36241	14.2597
3.36023	14.1925
3.35805	14.1708
3.35588	14.1844
3.35371	14.1378
3.35154	14.058
3.34938	13.9731
3.34721	13.8839
3.34505	13.8278
3.3429	13.8331
3.34074	13.8191
3.33859	13.6941
3.33644	13.6665
3.3343	13.7099
3.33215	13.5924
3.33001	13.4744
3.32788	13.3697
3.32574	13.3736
3.32361	13.3627
3.32148	13.3174
3.31936	13.241
3.31723	13.2446
3.31511	13.1545
3.31299	12.9773
3.31088	12.8939
3.30876	12.7458
3.30665	12.6226
3.30455	12.5787
3.30244	12.4799
3.30034	12.4497
3.29824	12.4271
3.29614	12.3634
3.29405	12.3024
3.29196	12.2089
3.28987	12.0647
3.28778	11.9168
3.2857	11.9037
3.28362	11.9133
3.28154	11.8443
3.27946	11.7952
3.27739	11.6724
3.27532	11.4948
3.27325	11.3457
3.27119	11.383
3.26913	11.3685
3.26707	11.2378
3.26501	11.1399
3.26295	11.1305
3.2609	11.1743
3.25885	11.1078
3.2568	10.9599
3.25476	10.7711
3.25272	10.6466
3.25068	10.6481
3.24864	10.6148
3.24661	10.5432
3.24458	10.5688
3.24255	10.5162
3.24052	10.4225
3.2385	10.3053
3.23648	10.1682
3.23446	10.1272
3.23244	10.0569
3.23043	9.94796
3.22841	9.77726
3.2264	9.72845
3.2244	9.74152
3.22239	9.59926
3.22039	9.51701
3.21839	9.451
3.2164	9.35348
3.2144	9.21883
3.21241	9.06854
3.21042	8.93645
3.20844	8.81927
3.20645	8.78831
3.20447	8.68955
3.20249	8.64067
3.20051	8.60175
3.19854	8.35375
3.19657	8.27741
3.1946	8.36855
3.19263	8.32536
3.19067	8.24813
3.1887	8.17427
3.18674	8.17449
3.18479	8.22716
3.18283	8.10276
3.18088	8.08155
3.17893	8.12444
3.17698	8.13825
3.17504	8.06007
3.17309	8.01914
3.17115	8.00742
3.16921	8.07127
3.16728	8.0773
3.16534	8.05291
3.16341	7.9794
3.16148	7.85183
3.15956	7.87099
3.15763	7.90268
3.15571	7.95594
3.15379	7.96921
3.15187	7.89114
3.14996	7.79701
3.14805	7.7795
3.14614	7.66523
3.14423	7.60708
3.14232	7.5412
3.14042	7.50915
3.13852	7.38358
3.13662	7.22497
3.13472	7.16769
3.13283	7.1112
3.13094	7.08605
3.12905	7.0536
3.12716	7.01991
3.12528	6.96954
3.12339	6.80665
3.12151	6.71595
3.11964	6.88094
3.11776	6.87838
3.11589	6.77102
3.11401	6.73393
3.11214	6.81473
3.11028	6.8668
3.10841	6.74666
3.10655	6.644
3.10469	6.62108
3.10283	6.48367
3.10098	6.25769
3.09912	6.18452
3.09727	6.22195
3.09542	6.25892
3.09358	6.18053
3.09173	6.12779
3.08989	6.10126
3.08805	6.06474
3.08621	6.07351
3.08437	5.95878
3.08254	5.79566
3.08071	5.64845
3.07888	5.53731
3.07705	5.41245
3.07523	5.3226
3.0734	5.20347
3.07158	5.1464
3.06977	5.10972
3.06795	4.98651
3.06613	4.87316
3.06432	4.8314
3.06251	4.73284
3.0607	4.45916
3.0589	4.31294
3.0571	4.36077
3.05529	4.2692
3.05349	4.15073
3.0517	4.00031
3.0499	3.83268
3.04811	3.80577
3.04632	3.79354
3.04453	3.71148
3.04274	3.58666
3.04096	3.40736
3.03918	3.36242
3.0374	3.32679
3.03562	3.35487
3.03384	3.35462
3.03207	3.27401
3.03029	3.23607
3.02852	3.22823
3.02676	3.12013
3.02499	3.03235
3.02323	3.19449
3.02146	3.27112
3.0197	3.09021
3.01795	2.9061
3.01619	2.91511
3.01444	2.90888
3.01269	2.94612
3.01094	2.88099
3.00919	2.75191
3.00744	2.66938
3.0057	2.6206
3.00396	2.55253
3.00222	2.56124
3.00048	2.49782
2.99875	2.53249
2.99701	2.67787
2.99528	2.54785
2.99355	2.33926
2.99183	2.20937
2.9901	2.14689
2.98838	2.09266
2.98666	2.15019
2.98494	2.24426
2.98322	2.28221
2.9815	2.23951
2.97979	2.06699
2.97808	1.94852
2.97637	1.9007
2.97466	1.82934
2.97295	1.74318
2.97125	1.69599
2.96955	1.61499
2.96785	1.3494
2.96615	1.143
2.96446	1.15212
2.96276	1.22872
2.96107	1.25495
2.95938	1.29919
2.95769	1.35197
2.95601	1.12067
2.95432	0.990927
2.95264	1.11518
2.95096	1.15844
2.94928	1.11749
2.9476	1.10189
2.94593	1.03599
2.94425	1.06479
2.94258	1.11763
2.94092	1.13344
2.93925	1.15589
2.93758	1.24518
2.93592	1.27498
2.93426	1.27069
2.9326	1.28798
2.93094	1.35716
2.92928	1.48839
2.92763	1.53979
2.92598	1.46769
2.92433	1.44066
2.92268	1.59007
2.92103	1.6254
2.91939	1.54768
2.91775	1.56452
2.9161	1.60719
2.91447	1.7297
2.91283	1.87846
2.91119	1.85455
2.90956	1.85061
2.90793	2.00745
2.9063	1.99388
2.90467	2.14976
2.90304	2.20936
2.90142	2.05178
2.89979	2.18907
2.89817	2.35359
2.89656	2.46917
2.89494	2.61115
2.89332	2.60617
2.89171	2.60441
2.8901	2.84796
2.88849	3.03828
2.88688	3.09732
2.88527	3.20484
2.88367	3.35814
2.88206	3.67207
2.88046	3.85309
2.87886	3.78983
2.87727	4.03202
2.87567	4.4369
2.87408	4.58167
2.87248	4.62095
2.87089	4.79474
2.8693	5.1227
2.86772	5.42718
2.86613	5.50925
2.86455	5.47492
2.86297	5.68669
2.86139	5.97407
2.85981	6.19006
2.85823	6.4517
2.85666	6.65704
2.85508	6.73943
2.85351	6.70654
2.85194	6.94114
2.85038	7.34592
2.84881	7.57274
2.84724	7.62496
2.84568	7.76691
2.84412	8.06061
2.84256	8.27848
2.841	8.56422
2.83945	8.82569
2.83789	9.01398
2.83634	9.19949
2.83479	9.57408
2.83324	10.0535
2.83169	10.3769
2.83015	10.7117
2.82861	11.0019
2.82706	11.2976
2.82552	11.6035
2.82398	11.8239
2.82245	11.9873
2.82091	12.1958
2.81938	12.5163
2.81784	12.878
2.81631	13.1871
2.81479	13.455
2.81326	13.5982
2.81173	13.8141
2.81021	13.9402
2.80869	14.0387
2.80716	14.2689
2.80565	14.566
2.80413	14.7222
2.80261	14.8832
2.8011	14.9498
2.79959	15.0839
2.79808	15.3114
2.79657	15.6216
2.79506	15.7427
2.79355	15.9982
2.79205	16.2422
2.79055	16.4819
2.78904	16.8249
2.78754	17.2298
2.78605	17.6324
2.78455	17.9945
2.78306	18.3983
2.78156	18.9198
2.78007	19.2725
2.77858	19.509
2.77709	19.9099
2.77561	20.2049
2.77412	20.6013
2.77264	21.3284
2.77116	22.0082
2.76968	22.392
2.7682	22.8042
2.76672	23.3471
2.76524	23.9263
2.76377	24.5494
2.7623	24.9993
2.76083	25.3334
2.75936	25.8963
2.75789	26.7246
2.75642	27.439
2.75496	27.816
2.7535	28.0631
2.75203	28.53
2.75057	28.9808
2.74912	29.5226
2.74766	29.9672
2.7462	30.3924
2.74475	30.7187
2.7433	31.1726
2.74185	31.8974
2.7404	32.6463
2.73895	32.9873
2.7375	33.0679
2.73606	33.4526
2.73462	34.1112
2.73318	34.4248
2.73174	34.6722
2.7303	35.0412
2.72886	35.4061
2.72742	35.7994
2.72599	36.4608
2.72456	37.1066
2.72313	37.2343
2.7217	37.6335
2.72027	38.2257
2.71884	38.2712
2.71742	38.3951
2.71599	38.692
2.71457	38.9968
2.71315	39.3296
2.71173	39.974
2.71032	40.4023
2.7089	40.4222
2.70748	40.472
2.70607	40.7271
2.70466	40.9097
2.70325	40.9831
2.70184	41.2778
2.70043	41.5558
2.69903	41.6263
2.69762	41.7025
2.69622	41.8804
2.69482	42.0901
2.69342	42.0493
2.69202	41.6444
2.69062	41.4008
2.68923	41.2832
2.68783	41.0805
2.68644	40.9358
2.68505	40.841
2.68366	40.7453
2.68227	40.6635
2.68089	40.6925
2.6795	40.9426
2.67812	40.8464
2.67673	40.7556
2.67535	40.4858
2.67397	40.1571
2.6726	40.2153
2.67122	40.7389
2.66984	40.6378
2.66847	40.0763
2.6671	40.1907
2.66572	40.0786
2.66435	39.6148
2.66299	39.0925
2.66162	39.1007
2.66025	39.1797
2.65889	38.912
2.65753	38.5712
2.65616	38.6214
2.65481	38.3735
2.65345	38.1027
2.65209	37.9597
2.65073	37.7136
2.64938	37.4337
2.64803	37.2184
2.64667	37.076
2.64532	36.8236
2.64397	36.5734
2.64263	36.3857
2.64128	36.1338
2.63994	35.8045
2.63859	35.5109
2.63725	35.3518
2.63591	35.1177
2.63457	34.9559
2.63323	34.6903
2.6319	34.6162
2.63056	34.849
2.62923	34.5603
2.62789	34.2735
2.62656	34.3109
2.62523	34.1037
2.6239	34.0069
2.62258	34.0512
2.62125	34.3165
2.61993	34.3366
2.6186	34.2696
2.61728	34.5616
2.61596	34.4804
2.61464	34.2298
2.61332	34.221
2.61201	34.2475
2.61069	34.5136
2.60938	34.8251
2.60807	34.9791
2.60675	35.374
2.60544	35.8319
2.60414	36.0043
2.60283	36.0633
2.60152	36.1784
2.60022	36.3665
2.59891	36.5791
2.59761	37.0106
2.59631	37.9087
2.59501	38.7668
2.59371	38.7379
2.59242	38.4972
2.59112	38.5166
2.58983	38.8221
2.58853	39.2233
2.58724	39.623
2.58595	39.8845
2.58466	40.4133
2.58338	40.729
2.58209	40.8647
2.5808	41.1064
2.57952	41.1785
2.57824	41.5838
2.57695	42.0181
2.57567	42.1892
2.5744	42.4675
2.57312	42.6459
2.57184	42.4408
2.57057	42.7453
2.56929	43.1728
2.56802	43.3155
2.56675	43.5179
2.56548	43.7353
2.56421	43.9197
2.56294	44.05
2.56168	44.1556
2.56041	44.2136
2.55915	44.1859
2.55789	44.2235
2.55662	44.2588
2.55536	44.2254
2.5541	44.2362
2.55285	44.3233
2.55159	44.4479
2.55034	44.4482
2.54908	44.298
2.54783	44.3039
2.54658	44.2984
2.54533	44.1998
2.54408	44.1679
2.54283	44.2804
2.54159	44.1984
2.54034	43.9388
2.5391	43.7634
2.53785	43.8187
2.53661	44.034
2.53537	44.0687
2.53413	43.8634
2.53289	43.6489
2.53166	43.4693
2.53042	43.3482
2.52919	43.1761
2.52795	43.0478
2.52672	42.8385
2.52549	42.622
2.52426	42.4694
2.52303	42.1093
2.52181	41.7634
2.52058	41.6156
2.51936	41.4266
2.51813	41.2725
2.51691	41.2734
2.51569	41.296
2.51447	41.3527
2.51325	41.4999
2.51203	41.7136
2.51082	42.1892
2.5096	42.6413
2.50839	43.0194
2.50717	43.3006
2.50596	43.6301
2.50475	44.2014
2.50354	44.4987
2.50233	44.8291
2.50113	45.3954
2.49992	45.6965
2.49872	46.1122
2.49751	46.4765
2.49631	46.5629
2.49511	46.7173
2.49391	46.8972
2.49271	47.0704
2.49151	47.2664
2.49031	47.4706
2.48912	47.5459
2.48792	47.4783
2.48673	47.4692
2.48554	47.7284
2.48435	47.924
2.48316	47.9213
2.48197	47.8473
2.48078	47.8189
2.4796	47.7654
2.47841	47.6887
2.47723	47.6645
2.47604	47.5316
2.47486	47.3762
2.47368	47.4101
2.4725	47.4074
2.47132	47.3016
2.47014	47.2428
2.46897	47.1791
2.46779	47.0179
2.46662	46.7873
2.46545	46.7093
2.46427	46.7647
2.4631	46.8326
2.46193	46.8278
2.46077	46.8246
2.4596	46.8316
2.45843	46.8892
2.45727	47.0581
2.4561	47.2683
2.45494	47.4829
2.45378	47.7009
2.45262	47.9887
2.45146	48.3758
2.4503	48.8108
2.44914	49.0329
2.44799	49.1339
2.44683	49.4003
2.44568	49.7405
2.44452	50.0746
2.44337	50.1585
2.44222	50.2712
2.44107	50.5013
2.43992	50.7096
2.43877	50.9016
2.43763	50.9728
2.43648	51.1069
2.43534	51.2694
2.43419	51.2796
2.43305	51.2281
2.43191	51.2324
2.43077	51.1552
2.42963	51.2989
2.42849	51.2994
2.42736	51.1476
2.42622	51.1042
2.42509	51.0734
2.42395	50.8991
2.42282	50.8713
2.42169	51.0023
2.42056	51.0432
2.41943	50.9687
2.4183	50.9186
2.41717	50.8864
2.41605	50.8787
2.41492	50.9217
2.4138	51.0867
2.41267	51.2413
2.41155	51.282
2.41043	51.4252
2.40931	51.5413
2.40819	51.5395
2.40707	51.5836
2.40595	51.7991
2.40484	52.0209
2.40372	52.291
2.40261	52.5434
2.4015	52.8141
2.40039	53.0293
2.39928	53.37
2.39817	53.8135
2.39706	54.1762
2.39595	54.4702
2.39484	54.7015
2.39374	55.0148
2.39263	55.4111
2.39153	55.887
2.39043	56.2043
2.38932	56.4874
2.38822	56.9918
2.38712	57.3946
2.38603	57.6332
2.38493	57.8236
2.38383	58.1956
2.38274	58.6165
2.38164	58.9075
2.38055	59.2477
2.37946	59.6478
2.37836	59.992
2.37727	60.1618
2.37618	60.3796
2.3751	60.5816
2.37401	60.7952
2.37292	61.1067
2.37184	61.3785
2.37075	61.6451
2.36967	61.9092
2.36859	62.0471
2.3675	62.1743
2.36642	62.4223
2.36534	62.789
2.36427	63.0014
2.36319	63.066
2.36211	63.2786
2.36104	63.4773
2.35996	63.5488
2.35889	63.6835
2.35781	63.9026
2.35674	64.1212
2.35567	64.1365
2.3546	64.2055
2.35353	64.353
2.35247	64.4843
2.3514	64.5902
2.35033	64.7252
2.34927	64.9613
2.3482	65.08
2.34714	65.0527
2.34608	65.0384
2.34502	65.133
2.34396	65.162
2.3429	65.1114
2.34184	65.1696
2.34078	65.2118
2.33973	65.1861
2.33867	65.0699
2.33762	65.0674
2.33656	65.1382
2.33551	65.1496
2.33446	65.0608
2.33341	64.8959
2.33236	65.0146
2.33131	65.0589
2.33026	64.8852
2.32922	64.7629
2.32817	64.685
2.32712	64.5713
2.32608	64.4034
2.32504	64.3232
2.324	64.1461
2.32295	63.8457
2.32191	63.7037
2.32087	63.5492
2.31984	63.382
2.3188	63.17
2.31776	62.9948
2.31673	62.6181
2.31569	62.1406
2.31466	61.8327
2.31362	61.4488
2.31259	61.0393
2.31156	60.7455
2.31053	60.3658
2.3095	59.8066
2.30847	59.4774
2.30745	59.1547
2.30642	58.8087
2.3054	58.5518
2.30437	58.6027
2.30335	58.5381
2.30232	58.3887
2.3013	58.3193
2.30028	58.4227
2.29926	58.4944
2.29824	58.4119
2.29722	58.3256
2.29621	58.1095
2.29519	57.8969
2.29417	57.7395
2.29316	57.572
2.29215	57.3786
2.29113	57.0786
2.29012	56.7075
2.28911	56.2705
2.2881	55.8175
2.28709	55.2597
2.28608	54.6199
2.28507	54.0654
2.28407	53.5471
2.28306	53.1379
2.28206	52.8149
2.28105	52.3616
2.28005	51.8532
2.27905	51.3259
2.27805	50.9695
2.27705	50.6308
2.27605	50.3699
2.27505	50.106
2.27405	49.8952
2.27305	49.8405
2.27206	49.7427
2.27106	49.6084
2.27007	49.501
2.26907	49.4353
2.26808	49.3031
2.26709	49.1707
2.2661	49.2082
2.26511	49.3505
2.26412	49.5688
2.26313	49.8236
2.26214	49.983
2.26116	50.0559
2.26017	50.2501
2.25919	50.611
2.2582	51.0775
2.25722	51.6641
2.25624	52.3069
2.25526	52.8187
2.25428	53.2463
2.2533	53.5842
2.25232	53.9213
2.25134	54.4862
2.25036	55.0335
2.24939	55.3612
2.24841	55.8312
2.24744	56.1896
2.24646	56.5512
2.24549	56.7176
2.24452	56.7273
2.24355	56.8449
2.24257	56.9683
2.24161	57.1121
2.24064	57.4387
2.23967	57.4966
2.2387	57.375
2.23774	57.4004
2.23677	57.4069
2.23581	57.5002
2.23484	57.6403
2.23388	57.8241
2.23292	58.0163
2.23196	58.1497
2.231	58.0771
2.23004	58.0195
2.22908	57.9842
2.22812	57.908
2.22716	58.1086
2.22621	58.3276
2.22525	58.4289
2.2243	58.4454
2.22334	58.6568
2.22239	58.9455
2.22144	59.0388
2.22049	58.9232
2.21953	58.9216
2.21859	59.0582
2.21764	59.2851
2.21669	59.5887
2.21574	59.7897
2.21479	59.9313
2.21385	60.1852
2.2129	60.3863
2.21196	60.4993
2.21102	60.6083
2.21007	60.8237
2.20913	60.8495
2.20819	60.8719
2.20725	61.1256
2.20631	61.3708
2.20537	61.4795
2.20444	61.6448
2.2035	61.8058
2.20256	61.9611
2.20163	62.1092
2.20069	62.3132
2.19976	62.448
2.19883	62.5008
2.19789	62.5677
2.19696	62.7487
2.19603	62.885
2.1951	62.9532
2.19417	63.2217
2.19325	63.3114
2.19232	63.2032
2.19139	63.3339
2.19047	63.6317
2.18954	63.7177
2.18862	63.7114
2.18769	63.9064
2.18677	64.0225
2.18585	64.1057
2.18493	64.2847
2.18401	64.4128
2.18309	64.6209
2.18217	64.6801
2.18125	64.4712
2.18033	64.5081
2.17942	64.841
2.1785	65.1162
2.17759	65.1288
2.17667	65.1382
2.17576	65.2411
2.17485	65.2209
2.17393	65.1796
2.17302	65.2481
2.17211	65.2671
2.1712	65.4403
2.17029	65.5915
2.16939	65.6101
2.16848	65.644
2.16757	65.5099
2.16667	65.487
2.16576	65.6432
2.16486	65.7783
2.16395	65.7285
2.16305	65.8133
2.16215	65.9705
2.16125	66.1871
2.16035	66.2596
2.15945	66.22
2.15855	66.1669
2.15765	66.097
2.15675	66.1651
2.15586	66.2514
2.15496	66.348
2.15406	66.4934
2.15317	66.5263
2.15228	66.4068
2.15138	66.4537
2.15049	66.7224
2.1496	66.8046
2.14871	66.7165
2.14782	66.7506
2.14693	66.9208
2.14604	66.9561
2.14515	66.9572
2.14427	67.0506
2.14338	67.1192
2.14249	67.2171
2.14161	67.3046
2.14072	67.501
2.13984	67.5698
2.13896	67.4402
2.13808	67.5842
2.13719	67.6533
2.13631	67.5926
2.13543	67.6092
2.13455	67.6125
2.13368	67.7693
2.1328	67.9811
2.13192	68.01
2.13105	67.8739
2.13017	67.8969
2.1293	67.9264
2.12842	67.8387
2.12755	67.9422
2.12668	67.9292
2.1258	67.9814
2.12493	68.1653
2.12406	68.3195
2.12319	68.3847
2.12232	68.3566
2.12145	68.364
2.12059	68.3507
2.11972	68.4349
2.11885	68.4166
2.11799	68.4234
2.11712	68.5926
2.11626	68.759
2.1154	69.0044
2.11453	69.0957
2.11367	68.8995
2.11281	68.6852
2.11195	68.7826
2.11109	68.9475
2.11023	68.8371
2.10937	68.7008
2.10851	68.8558
2.10766	69.0474
2.1068	69.1088
2.10594	69.1621
2.10509	69.2247
2.10423	69.2581
2.10338	69.3889
2.10253	69.4341
2.10168	69.3551
2.10082	69.4768
2.09997	69.6777
2.09912	69.6268
2.09827	69.6273
2.09742	69.6201
2.09658	69.7529
2.09573	69.8206
2.09488	69.7933
2.09404	69.7708
2.09319	69.9202
2.09235	70.013
2.0915	69.93
2.09066	70.0861
2.08982	70.3077
2.08897	70.1553
2.08813	70.0934
2.08729	70.0018
2.08645	70.0502
2.08561	70.0021
2.08477	69.8529
2.08394	69.8179
2.0831	70.0081
2.08226	70.1874
2.08143	70.2989
2.08059	70.4806
2.07976	70.5663
2.07892	70.4487
2.07809	70.3477
2.07726	70.3121
2.07643	70.4191
2.07559	70.5045
2.07476	70.6507
2.07393	70.803
2.0731	70.6502
2.07228	70.5358
2.07145	70.6539
2.07062	70.5345
2.06979	70.5475
2.06897	70.8036
2.06814	70.9415
2.06732	71.1906
2.06649	71.207
2.06567	70.9828
2.06485	70.9862
2.06403	71.2408
2.0632	71.2149
2.06238	71.1499
2.06156	71.2174
2.06074	71.1736
2.05993	71.2661
2.05911	71.3861
2.05829	71.3658
2.05747	71.4999
2.05666	71.4719
2.05584	71.4688
2.05503	71.581
2.05421	71.4235
2.0534	71.4649
2.05259	71.8066
2.05177	71.8661
2.05096	71.9032
2.05015	71.983
2.04934	71.7907
2.04853	71.8266
2.04772	71.9179
2.04691	71.861
2.04611	72.0354
2.0453	72.0201
2.04449	71.9367
2.04369	71.9936
2.04288	72.3102
2.04208	72.3687
2.04127	72.2964
2.04047	72.2656
2.03967	72.2071
2.03886	72.5365
2.03806	72.6315
2.03726	72.4787
2.03646	72.4376
2.03566	72.5897
2.03486	72.8251
2.03407	72.8193
2.03327	72.949
2.03247	73.033
2.03167	73.212
2.03088	73.157
2.03008	72.906
2.02929	73.1045
2.0285	73.2638
2.0277	73.3058
2.02691	73.5309
2.02612	73.547
2.02533	73.5061
2.02453	73.5296
2.02374	73.5273
2.02295	73.3371
2.02217	73.2694
2.02138	73.5553
2.02059	73.7693
2.0198	73.7937
2.01902	73.6897
2.01823	73.7707
2.01744	73.6536
2.01666	73.4625
2.01588	73.6664
2.01509	73.8024
2.01431	73.8765
2.01353	73.9544
2.01275	73.8645
2.01196	73.7817
2.01118	73.9376
2.0104	73.8494
2.00963	73.6814
2.00885	73.7743
2.00807	73.8012
2.00729	73.7363
2.00651	73.8036
2.00574	73.9847
2.00496	74.1421
2.00419	74.1535
2.00341	74.2009
2.00264	74.2483
2.00187	74.1436
2.00109	74.0933
2.00032	74.0858
