Name: Plumbojarosite PbFe_3^3+(SO_4)_4(OH)_12
Type: Mineral
Class: Sulfates
Subclass: 
Particle Size: 125-500um
Sample No.: SO-7B
Owner: JPL
Wavelength range: IR
Origin: Mexico, Hidalgo, Zimapan, Lomo De Toro Mine
Collected by Burminco
Description: 





Measurement: Hemispherical reflectance
First Column: X
Second Column: Y
X Units:  Wavelength (micrometers)
Y Units:  Reflectance (percent)
First X Value: 15.3853
Last X Value: 2.00032
Number of X Values: 2256
Additional information: so07ba.txt
 
15.3853	0.0643151
15.3397	0.336775
15.2945	0.353424
15.2495	0.446118
15.2048	0.367582
15.1603	0.337693
15.1161	0.763438
15.0722	0.833771
15.0285	0.568002
14.9851	0.449686
14.9419	0.287344
14.8989	0.333758
14.8563	0.256612
14.8138	0.169686
14.7716	0.41751
14.7296	0.607059
14.6879	0.593426
14.6464	0.632464
14.6052	0.526683
14.5641	0.387207
14.5233	0.358816
14.4828	0.461721
14.4424	0.452448
14.4023	0.501336
14.3624	0.659913
14.3227	0.65534
14.2833	0.513213
14.244	0.635613
14.205	0.534635
14.1662	0.482879
14.1276	0.616898
14.0892	0.624427
14.051	0.647786
14.0131	0.729904
13.9753	0.508062
13.9377	0.39813
13.9004	0.557849
13.8632	0.7196
13.8262	0.750596
13.7895	0.631285
13.7529	0.75966
13.7165	0.718795
13.6803	0.779414
13.6443	0.713332
13.6085	0.66248
13.5729	0.740221
13.5374	0.635533
13.5022	0.581647
13.4671	0.671672
13.4322	0.70525
13.3975	0.79046
13.363	0.794644
13.3286	0.804525
13.2944	0.841688
13.2604	0.827807
13.2266	0.841706
13.193	0.849199
13.1595	0.709675
13.1262	0.699483
13.093	0.849958
13.06	1.02025
13.0272	1.02494
12.9946	0.93244
12.9621	0.863662
12.9298	0.972578
12.8976	0.998686
12.8656	1.02316
12.8337	0.938585
12.8021	0.727237
12.7705	0.658717
12.7391	0.816006
12.7079	0.996396
12.6769	0.926998
12.6459	0.906323
12.6152	0.821262
12.5845	0.761827
12.5541	0.854637
12.5238	0.909544
12.4936	0.865975
12.4635	0.817752
12.4337	0.839489
12.4039	0.849683
12.3743	0.85006
12.3448	0.9297
12.3155	0.932044
12.2863	0.939317
12.2573	0.976135
12.2284	0.837842
12.1996	0.768773
12.171	0.738672
12.1425	0.888711
12.1141	0.971231
12.0859	0.896621
12.0578	0.879914
12.0298	0.983221
12.0019	1.05456
11.9742	1.10227
11.9466	1.21405
11.9192	1.20418
11.8918	1.1893
11.8646	1.19291
11.8375	1.12227
11.8106	1.01913
11.7837	0.993767
11.757	1.03925
11.7304	1.0872
11.7039	1.11026
11.6776	1.17038
11.6513	1.16614
11.6252	1.08438
11.5992	1.06388
11.5733	1.19237
11.5475	1.27519
11.5219	1.20329
11.4963	1.08895
11.4709	1.15017
11.4455	1.23544
11.4203	1.28487
11.3952	1.38919
11.3702	1.54295
11.3454	1.50866
11.3206	1.39483
11.2959	1.40802
11.2714	1.34652
11.2469	1.34577
11.2226	1.38082
11.1983	1.42469
11.1742	1.45513
11.1502	1.4788
11.1263	1.53682
11.1024	1.57935
11.0787	1.5336
11.0551	1.37389
11.0316	1.46754
11.0081	1.74915
10.9848	1.76325
10.9616	1.7956
10.9385	1.80643
10.9154	1.77736
10.8925	1.80766
10.8697	1.80268
10.8469	1.88143
10.8243	1.9253
10.8017	1.7924
10.7793	1.79762
10.7569	1.96869
10.7346	2.19432
10.7125	2.25075
10.6904	2.3087
10.6684	2.2802
10.6465	2.30248
10.6247	2.30937
10.6029	2.19757
10.5813	2.26353
10.5597	2.3795
10.5383	2.36025
10.5169	2.3648
10.4956	2.42231
10.4744	2.53816
10.4533	2.57514
10.4323	2.57706
10.4113	2.5119
10.3904	2.54077
10.3697	2.60008
10.349	2.60242
10.3284	2.70255
10.3078	2.71735
10.2874	2.71688
10.267	2.92719
10.2467	3.12076
10.2265	3.10679
10.2064	3.03559
10.1863	3.14707
10.1663	3.2302
10.1464	3.0771
10.1266	2.98513
10.1069	2.98191
10.0872	3.04785
10.0676	3.1226
10.0481	3.23425
10.0287	3.26402
10.0093	3.08845
9.99005	3.0113
9.97084	2.9843
9.95169	2.94284
9.93263	2.94633
9.91364	2.8419
9.89472	2.69523
9.87587	2.66299
9.8571	2.7538
9.83839	2.82173
9.81976	2.73338
9.80119	2.73504
9.78271	2.92223
9.76428	3.02596
9.74592	2.91849
9.72764	2.86078
9.70943	2.76768
9.69128	2.53022
9.6732	2.29284
9.65518	2.08843
9.63724	1.84165
9.61935	1.53187
9.60155	1.33579
9.5838	1.17851
9.56611	1.02703
9.5485	0.798985
9.53094	0.775997
9.51345	0.770227
9.49604	0.828901
9.47867	1.03653
9.46137	1.19156
9.44414	1.24798
9.42697	1.23483
9.40986	1.25109
9.39281	1.52487
9.37583	1.75249
9.35891	1.82095
9.34204	1.9688
9.32524	2.21942
9.3085	2.36678
9.29182	2.69392
9.27519	2.98374
9.25863	3.07869
9.24213	3.12934
9.22568	3.168
9.2093	3.17039
9.19297	2.90713
9.17669	2.56765
9.16048	2.43793
9.14433	2.28187
9.12823	2.05748
9.11218	1.84481
9.0962	1.71694
9.08027	1.60562
9.06439	1.56415
9.04858	1.69075
9.03281	1.8499
9.0171	1.96899
9.00145	2.10356
8.98585	2.24279
8.9703	2.32019
8.9548	2.19498
8.93937	2.14402
8.92398	2.1312
8.90865	2.07006
8.89337	2.08426
8.87814	1.872
8.86296	1.70939
8.84784	1.55867
8.83277	1.26929
8.81774	1.28568
8.80277	1.58013
8.78786	1.58487
8.77298	1.39016
8.75816	1.31615
8.7434	1.279
8.72868	1.19182
8.714	1.21917
8.69938	1.22929
8.68481	1.10895
8.67029	1.13315
8.65581	1.12158
8.64139	1.13464
8.62701	1.0945
8.61268	0.972414
8.5984	1.03363
8.58416	1.23219
8.56997	1.28759
8.55583	1.16253
8.54174	0.97692
8.52769	1.00653
8.51368	1.10886
8.49973	1.08428
8.48582	1.09018
8.47195	1.06399
8.45813	1.01931
8.44436	1.0401
8.43062	1.07525
8.41693	1.10808
8.4033	1.01585
8.3897	0.883348
8.37614	0.924108
8.36264	0.991659
8.34917	0.889733
8.33574	0.892338
8.32236	0.936791
8.30903	0.926657
8.29573	0.855936
8.28248	0.801135
8.26927	0.747395
8.2561	0.805481
8.24298	0.754122
8.2299	0.685898
8.21685	0.749303
8.20385	0.767666
8.19089	0.655433
8.17797	0.619855
8.16509	0.599956
8.15225	0.666285
8.13946	0.755984
8.1267	0.80164
8.11398	0.840404
8.10131	0.936795
8.08867	0.998222
8.07606	0.942475
8.0635	0.934503
8.05099	0.869947
8.0385	0.844657
8.02606	0.84074
8.01366	0.815362
8.00129	0.975361
7.98896	1.19143
7.97667	1.30316
7.96442	1.33327
7.9522	1.43499
7.94002	1.56451
7.92788	1.72574
7.91578	1.8326
7.90371	1.95781
7.89168	2.09581
7.87969	2.15627
7.86773	2.21057
7.85581	2.27837
7.84392	2.32482
7.83207	2.38085
7.82026	2.43133
7.80849	2.49863
7.79674	2.54392
7.78503	2.61285
7.77337	2.70246
7.76173	2.68725
7.75012	2.62314
7.73856	2.68279
7.72703	2.6859
7.71553	2.60284
7.70406	2.59948
7.69263	2.52349
7.68123	2.49737
7.66987	2.57333
7.65855	2.60517
7.64725	2.58617
7.63598	2.52303
7.62475	2.50773
7.61356	2.51819
7.60239	2.46771
7.59126	2.48704
7.58017	2.48559
7.5691	2.4726
7.55806	2.45754
7.54707	2.50164
7.5361	2.57717
7.52516	2.53905
7.51425	2.4819
7.50338	2.50601
7.49253	2.45741
7.48172	2.33582
7.47094	2.40414
7.46019	2.40991
7.44947	2.40326
7.43879	2.50426
7.42813	2.60812
7.4175	2.60983
7.4069	2.5285
7.39634	2.56976
7.3858	2.61929
7.37529	2.58642
7.36482	2.63538
7.35437	2.62884
7.34396	2.64352
7.33357	2.71697
7.32321	2.74661
7.31288	2.76016
7.30258	2.72855
7.29231	2.71916
7.28207	2.70835
7.27185	2.70917
7.26167	2.77556
7.25152	2.81263
7.24139	2.78622
7.23129	2.82216
7.22122	2.92267
7.21117	2.96576
7.20116	2.99628
7.19117	2.98997
7.18121	2.9744
7.17128	2.99448
7.16137	3.00312
7.1515	3.0084
7.14164	3.03399
7.13182	3.06184
7.12203	3.07199
7.11225	2.99024
7.10251	2.90081
7.0928	2.91633
7.08311	3.02321
7.07344	3.06847
7.06381	3.06901
7.0542	3.19092
7.04461	3.18169
7.03506	3.10271
7.02552	3.13726
7.01601	3.17828
7.00653	3.24466
6.99708	3.30925
6.98765	3.22826
6.97824	3.28675
6.96886	3.42379
6.95951	3.41992
6.95018	3.34862
6.94087	3.39853
6.9316	3.45002
6.92234	3.39546
6.91311	3.45671
6.90391	3.57325
6.89473	3.60063
6.88557	3.67028
6.87644	3.71568
6.86733	3.76932
6.85824	3.74391
6.84918	3.69432
6.84015	3.71131
6.83114	3.81417
6.82215	3.87185
6.81319	3.82419
6.80424	3.89031
6.79532	4.03015
6.78643	4.10056
6.77756	4.04535
6.76871	4.08874
6.75989	4.15264
6.75109	4.16372
6.74231	4.20174
6.73355	4.34156
6.72482	4.42112
6.71611	4.38166
6.70742	4.44794
6.69875	4.45528
6.69011	4.46982
6.68149	4.53965
6.67289	4.57864
6.66431	4.59951
6.65576	4.62408
6.64722	4.73587
6.63871	4.89056
6.63022	4.78602
6.62175	4.73569
6.61331	4.86914
6.60488	4.84481
6.59648	4.92841
6.5881	5.02826
6.57974	5.13401
6.5714	5.20036
6.56308	5.10681
6.55478	5.08098
6.54651	5.13358
6.53825	5.21283
6.53001	5.22415
6.5218	5.20895
6.51361	5.17419
6.50544	5.22182
6.49729	5.39223
6.48915	5.46541
6.48104	5.41543
6.47295	5.37888
6.46488	5.3383
6.45683	5.34434
6.4488	5.33159
6.44079	5.36157
6.4328	5.41734
6.42482	5.4891
6.41687	5.64321
6.40894	5.59753
6.40103	5.46807
6.39314	5.47705
6.38526	5.45138
6.37741	5.41914
6.36957	5.41132
6.36176	5.34166
6.35396	5.3577
6.34618	5.52594
6.33843	5.53766
6.33069	5.47573
6.32297	5.44021
6.31527	5.4363
6.30758	5.51629
6.29992	5.55156
6.29227	5.60074
6.28465	5.60914
6.27704	5.58823
6.26945	5.5419
6.26188	5.56682
6.25432	5.56375
6.24679	5.53448
6.23927	5.62249
6.23177	5.7193
6.22429	5.70904
6.21683	5.69454
6.20938	5.70017
6.20195	5.73786
6.19454	5.74456
6.18715	5.67633
6.17978	5.68412
6.17242	5.6704
6.16508	5.62141
6.15776	5.64174
6.15045	5.65542
6.14317	5.6382
6.1359	5.61521
6.12864	5.60111
6.12141	5.72265
6.11419	5.91806
6.10699	5.98139
6.0998	5.93963
6.09263	5.97175
6.08549	6.08612
6.07835	6.34358
6.07123	6.53753
6.06413	6.41608
6.05705	6.49264
6.04998	6.81149
6.04293	6.84026
6.0359	6.75365
6.02888	6.78318
6.02187	6.91552
6.01489	7.09322
6.00792	7.17907
6.00096	7.24528
5.99403	7.45217
5.98711	7.63197
5.9802	7.63076
5.97331	7.70773
5.96644	7.87457
5.95958	7.90489
5.95274	7.93927
5.94591	8.09631
5.9391	8.37577
5.9323	8.46307
5.92552	8.41098
5.91876	8.45219
5.91201	8.50706
5.90528	8.67687
5.89856	8.85898
5.89186	8.85933
5.88517	9.02353
5.8785	9.16457
5.87184	9.09291
5.8652	9.18329
5.85857	9.245
5.85196	9.35899
5.84536	9.41037
5.83878	9.43032
5.83221	9.54153
5.82566	9.75095
5.81912	9.82798
5.81259	9.71814
5.80608	9.68385
5.79959	9.65495
5.79311	9.62234
5.78665	9.73749
5.78019	9.8699
5.77376	9.98806
5.76734	10.1112
5.76093	10.0232
5.75453	9.98832
5.74815	10.0503
5.74179	9.99019
5.73543	10.0112
5.7291	10.1477
5.72277	10.3559
5.71646	10.5374
5.71017	10.6639
5.70389	10.6334
5.69762	10.6226
5.69136	10.6682
5.68513	10.7348
5.6789	10.9007
5.67268	10.8858
5.66648	10.7611
5.6603	10.809
5.65413	10.8396
5.64797	10.845
5.64182	10.9479
5.63569	10.9609
5.62957	11.0258
5.62347	11.0769
5.61737	11.1492
5.61129	11.1948
5.60522	11.1353
5.59917	11.0922
5.59313	11.1165
5.5871	11.1998
5.58109	11.3607
5.57509	11.4858
5.5691	11.4179
5.56312	11.3956
5.55716	11.5232
5.55121	11.6521
5.54528	11.6844
5.53935	11.7116
5.53344	11.7961
5.52754	11.9244
5.52166	11.9883
5.51578	12.0394
5.50992	12.1063
5.50407	12.1462
5.49823	12.1509
5.49241	12.2522
5.4866	12.3258
5.4808	12.4092
5.47501	12.5131
5.46923	12.6229
5.46347	12.69
5.45772	12.7064
5.45198	12.7931
5.44625	12.9177
5.44054	12.9889
5.43484	13.0543
5.42914	13.1072
5.42347	13.2403
5.4178	13.2552
5.41214	13.2108
5.4065	13.3019
5.40087	13.4466
5.39525	13.4417
5.38964	13.4007
5.38404	13.4511
5.37846	13.4582
5.37288	13.4842
5.36732	13.4778
5.36177	13.5846
5.35623	13.7562
5.35071	13.8104
5.34519	13.7703
5.33968	13.6705
5.33419	13.6253
5.32871	13.6281
5.32324	13.6493
5.31778	13.6284
5.31233	13.6006
5.30689	13.6265
5.30147	13.598
5.29605	13.5435
5.29065	13.4801
5.28525	13.3982
5.27987	13.476
5.2745	13.49
5.26914	13.293
5.26379	13.1968
5.25845	13.203
5.25312	13.1741
5.24781	13.0676
5.2425	12.9591
5.23721	12.8448
5.23192	12.6926
5.22665	12.5739
5.22138	12.4376
5.21613	12.3382
5.21089	12.205
5.20566	12.0114
5.20044	11.8017
5.19522	11.6814
5.19002	11.5837
5.18483	11.3658
5.17965	11.1412
5.17448	10.9635
5.16933	10.8379
5.16418	10.6119
5.15904	10.3653
5.15391	10.1543
5.14879	9.90082
5.14368	9.6296
5.13859	9.38402
5.1335	9.21391
5.12842	9.01466
5.12335	8.7774
5.1183	8.52023
5.11325	8.26207
5.10821	8.1238
5.10318	8.05584
5.09817	7.99218
5.09316	7.97579
5.08816	8.09414
5.08317	8.13743
5.07819	8.07537
5.07322	8.08093
5.06826	8.11345
5.06331	8.11552
5.05837	8.13875
5.05344	8.2218
5.04852	8.31167
5.04361	8.36928
5.03871	8.35292
5.03382	8.32914
5.02894	8.41502
5.02406	8.50852
5.0192	8.48208
5.01435	8.44672
5.0095	8.3688
5.00467	8.28021
4.99984	8.27863
4.99502	8.1832
4.99021	8.09543
4.98542	8.08967
4.98063	8.02181
4.97585	7.81885
4.97108	7.71844
4.96632	7.73556
4.96156	7.75901
4.95682	7.73598
4.95209	7.68023
4.94736	7.54179
4.94264	7.45963
4.93794	7.55101
4.93324	7.54284
4.92855	7.40932
4.92387	7.42966
4.9192	7.53391
4.91453	7.63586
4.90988	7.72291
4.90524	7.79793
4.9006	7.89711
4.89597	8.01844
4.89135	8.09839
4.88674	8.17556
4.88214	8.23904
4.87755	8.28316
4.87296	8.2966
4.86839	8.27936
4.86382	8.33188
4.85926	8.38478
4.85471	8.38149
4.85017	8.38695
4.84564	8.44116
4.84111	8.56322
4.8366	8.7075
4.83209	8.78501
4.82759	8.86611
4.8231	8.96985
4.81862	9.05392
4.81415	9.21491
4.80968	9.39425
4.80522	9.48468
4.80077	9.59627
4.79633	9.70933
4.7919	9.8052
4.78747	9.83994
4.78306	9.82268
4.77865	9.82028
4.77425	9.93273
4.76986	9.95125
4.76547	9.93039
4.7611	9.95033
4.75673	9.96324
4.75237	9.94589
4.74802	9.97494
4.74367	10.1264
4.73934	10.268
4.73501	10.3239
4.73069	10.3995
4.72638	10.4748
4.72207	10.5405
4.71777	10.6141
4.71348	10.6533
4.7092	10.8101
4.70493	11.022
4.70066	10.9982
4.69641	10.9806
4.69216	11.0902
4.68791	11.1413
4.68368	11.2078
4.67945	11.3187
4.67523	11.3463
4.67102	11.4065
4.66682	11.5061
4.66262	11.592
4.65843	11.7333
4.65425	11.8047
4.65007	11.7891
4.64591	11.8745
4.64175	12.0249
4.6376	12.0806
4.63345	12.1432
4.62932	12.1902
4.62519	12.2084
4.62106	12.2737
4.61695	12.3475
4.61284	12.3508
4.60874	12.3637
4.60465	12.4075
4.60056	12.3849
4.59648	12.4017
4.59241	12.4917
4.58835	12.5367
4.58429	12.5589
4.58024	12.6959
4.5762	12.8031
4.57216	12.7562
4.56814	12.7962
4.56411	12.98
4.5601	13.1098
4.55609	13.2117
4.55209	13.3143
4.5481	13.4712
4.54411	13.6053
4.54013	13.6881
4.53616	13.8178
4.5322	14.0246
4.52824	14.1888
4.52429	14.2477
4.52034	14.386
4.51641	14.5453
4.51247	14.6438
4.50855	14.8102
4.50463	14.9368
4.50072	15.1204
4.49682	15.2441
4.49292	15.264
4.48903	15.393
4.48515	15.5818
4.48127	15.7416
4.4774	15.8914
4.47354	16.0376
4.46968	16.2226
4.46584	16.4253
4.46199	16.5603
4.45815	16.6842
4.45432	16.8249
4.4505	16.9415
4.44668	17.1172
4.44287	17.2861
4.43907	17.3683
4.43527	17.4719
4.43148	17.6095
4.4277	17.7479
4.42392	17.8543
4.42015	17.9539
4.41638	18.0614
4.41262	18.1415
4.40887	18.2809
4.40513	18.34
4.40139	18.4045
4.39765	18.5325
4.39393	18.6569
4.39021	18.7589
4.38649	18.7996
4.38278	18.7803
4.37908	18.8319
4.37539	18.9451
4.3717	19.0499
4.36801	19.1394
4.36434	19.2277
4.36067	19.2386
4.357	19.2963
4.35335	19.3545
4.34969	19.3842
4.34605	19.3833
4.34241	19.4734
4.33877	19.5347
4.33514	19.5804
4.33152	19.6601
4.32791	19.6925
4.3243	19.7267
4.32069	19.7303
4.3171	19.7015
4.31351	19.7228
4.30992	19.7504
4.30634	19.7331
4.30277	19.727
4.2992	19.689
4.29564	19.5601
4.29208	19.5493
4.28853	19.6949
4.28499	19.7336
4.28145	19.6361
4.27792	19.6074
4.27439	19.5539
4.27087	19.5004
4.26735	19.4852
4.26384	19.5519
4.26034	19.7457
4.25684	19.8476
4.25335	19.8654
4.24986	19.8725
4.24638	19.8433
4.24291	19.8634
4.23944	19.9345
4.23598	19.9511
4.23252	19.9976
4.22906	20.0877
4.22562	20.0989
4.22218	20.0983
4.21874	20.1269
4.21531	20.1719
4.21189	20.2567
4.20847	20.3578
4.20506	20.4469
4.20165	20.4565
4.19825	20.4124
4.19485	20.381
4.19146	20.4167
4.18807	20.4798
4.18469	20.4629
4.18132	20.4944
4.17795	20.5162
4.17458	20.5496
4.17123	20.6388
4.16787	20.6914
4.16453	20.7078
4.16118	20.6931
4.15785	20.6846
4.15451	20.6482
4.15119	20.6561
4.14787	20.7586
4.14455	20.8046
4.14124	20.8143
4.13794	20.8262
4.13464	20.8395
4.13134	20.8886
4.12805	20.8866
4.12477	20.7878
4.12149	20.7828
4.11822	20.864
4.11495	20.879
4.11168	20.9382
4.10843	20.9491
4.10517	20.8946
4.10192	20.9016
4.09868	20.9676
4.09545	21.0357
4.09221	21.0479
4.08899	21.0676
4.08576	21.0228
4.08255	21.0429
4.07933	21.15
4.07613	21.1574
4.07292	21.09
4.06973	21.0679
4.06654	21.1437
4.06335	21.1655
4.06017	21.0891
4.05699	21.081
4.05382	21.1548
4.05065	21.1673
4.04749	21.1223
4.04433	21.0668
4.04118	21.0261
4.03803	21.0134
4.03489	20.9476
4.03175	20.9583
4.02862	21.0428
4.02549	21.0028
4.02237	20.9355
4.01925	20.9448
4.01614	20.9297
4.01303	20.8215
4.00993	20.7942
4.00683	20.8822
4.00373	20.8807
4.00064	20.9053
3.99756	20.9166
3.99448	20.8637
3.9914	20.7414
3.98833	20.7345
3.98527	20.805
3.98221	20.8068
3.97915	20.7828
3.9761	20.7599
3.97305	20.6672
3.97001	20.5028
3.96697	20.5072
3.96394	20.5677
3.96091	20.5828
3.95789	20.574
3.95487	20.5034
3.95186	20.4565
3.94885	20.4658
3.94584	20.4005
3.94284	20.4094
3.93984	20.489
3.93685	20.5085
3.93386	20.4582
3.93088	20.343
3.9279	20.2748
3.92493	20.236
3.92196	20.1584
3.919	20.1512
3.91604	20.146
3.91308	20.2037
3.91013	20.1791
3.90718	20.0828
3.90424	20.0078
3.9013	19.9917
3.89837	20.0543
3.89544	20.0097
3.89252	19.8784
3.8896	19.8616
3.88668	19.8316
3.88377	19.7944
3.88086	19.7421
3.87796	19.6115
3.87506	19.5446
3.87217	19.5177
3.86928	19.4466
3.86639	19.3672
3.86351	19.3747
3.86064	19.3685
3.85776	19.2904
3.8549	19.3026
3.85203	19.2152
3.84917	19.0572
3.84631	19.0585
3.84346	19.0029
3.84062	18.892
3.83777	18.8234
3.83494	18.7779
3.8321	18.6867
3.82927	18.7008
3.82644	18.7114
3.82362	18.585
3.82081	18.4814
3.81799	18.4244
3.81518	18.4145
3.81238	18.3767
3.80958	18.3074
3.80678	18.2607
3.80399	18.2405
3.8012	18.2169
3.79841	18.1327
3.79563	18.0671
3.79286	18.0268
3.79008	17.8848
3.78731	17.7812
3.78455	17.7781
3.78179	17.6886
3.77903	17.6087
3.77628	17.5161
3.77353	17.4463
3.77079	17.4525
3.76805	17.4255
3.76531	17.3661
3.76258	17.306
3.75985	17.2574
3.75713	17.2067
3.7544	17.1517
3.75169	17.1367
3.74898	17.0301
3.74627	16.8393
3.74356	16.7335
3.74086	16.7225
3.73816	16.6636
3.73547	16.5863
3.73278	16.5469
3.7301	16.5625
3.72741	16.5133
3.72474	16.4054
3.72206	16.3876
3.71939	16.3757
3.71673	16.2574
3.71406	16.1569
3.71141	16.0649
3.70875	15.9959
3.7061	15.9255
3.70345	15.8397
3.70081	15.7507
3.69817	15.7743
3.69553	15.8254
3.6929	15.7458
3.69027	15.6137
3.68765	15.4739
3.68503	15.3559
3.68241	15.2947
3.6798	15.3153
3.67719	15.3049
3.67458	15.2352
3.67198	15.2397
3.66938	15.2014
3.66678	15.0844
3.66419	15.0052
3.66161	14.9511
3.65902	14.8469
3.65644	14.8245
3.65387	14.7454
3.65129	14.697
3.64872	14.7064
3.64616	14.6666
3.64359	14.5915
3.64103	14.4599
3.63848	14.3759
3.63593	14.4258
3.63338	14.3995
3.63084	14.2615
3.6283	14.1967
3.62576	14.2257
3.62322	14.1527
3.62069	14.0125
3.61817	13.9488
3.61564	13.9843
3.61312	14.0583
3.61061	14.0346
3.6081	13.9725
3.60559	13.9562
3.60308	13.8518
3.60058	13.7197
3.59808	13.6514
3.59558	13.5561
3.59309	13.5625
3.59061	13.5676
3.58812	13.4982
3.58564	13.3663
3.58316	13.3806
3.58069	13.3878
3.57822	13.2919
3.57575	13.2282
3.57328	13.2441
3.57082	13.2337
3.56836	13.1449
3.56591	13.0265
3.56346	12.9703
3.56101	12.9412
3.55857	12.8816
3.55613	12.7904
3.55369	12.7753
3.55126	12.7585
3.54883	12.6752
3.5464	12.6606
3.54397	12.7186
3.54155	12.6573
3.53914	12.5346
3.53672	12.5533
3.53431	12.4987
3.5319	12.3409
3.5295	12.3877
3.5271	12.3832
3.5247	12.3136
3.52231	12.2912
3.51991	12.2426
3.51753	12.1537
3.51514	12.1186
3.51276	12.105
3.51038	12.0338
3.50801	12.0178
3.50563	12.0856
3.50327	12.0167
3.5009	11.9412
3.49854	11.8986
3.49618	11.8578
3.49382	11.8026
3.49147	11.8149
3.48912	11.7885
3.48677	11.7059
3.48443	11.7285
3.48209	11.7336
3.47975	11.66
3.47742	11.4793
3.47509	11.4244
3.47276	11.5523
3.47044	11.5777
3.46812	11.5305
3.4658	11.425
3.46348	11.2639
3.46117	11.2489
3.45886	11.2388
3.45656	11.2338
3.45425	11.1661
3.45195	11.1226
3.44966	11.1503
3.44736	11.2121
3.44507	11.1649
3.44279	11.0629
3.4405	11.0555
3.43822	11.0125
3.43594	10.9799
3.43367	10.9135
3.43139	10.8492
3.42912	10.8481
3.42686	10.8911
3.42459	10.9281
3.42233	10.8688
3.42007	10.8267
3.41782	10.7323
3.41557	10.7499
3.41332	10.8248
3.41108	10.8337
3.40883	10.8065
3.40659	10.7506
3.40435	10.6969
3.40212	10.6073
3.39989	10.5784
3.39766	10.6188
3.39544	10.5062
3.39322	10.4332
3.391	10.4445
3.38878	10.3629
3.38657	10.2583
3.38436	10.2214
3.38215	10.391
3.37994	10.4873
3.37774	10.5006
3.37554	10.3592
3.37335	10.1729
3.37115	10.1574
3.36896	10.1565
3.36678	10.1156
3.36459	10.081
3.36241	10.127
3.36023	10.1271
3.35805	10.1148
3.35588	10.0423
3.35371	10.0327
3.35154	10.0682
3.34938	9.92262
3.34721	9.87496
3.34505	9.78716
3.3429	9.73444
3.34074	9.83261
3.33859	9.87944
3.33644	9.83084
3.3343	9.79717
3.33215	9.81208
3.33001	9.80539
3.32788	9.72354
3.32574	9.74803
3.32361	9.72925
3.32148	9.54055
3.31936	9.39204
3.31723	9.47658
3.31511	9.50439
3.31299	9.483
3.31088	9.45298
3.30876	9.4135
3.30665	9.36022
3.30455	9.40881
3.30244	9.49693
3.30034	9.45047
3.29824	9.35227
3.29614	9.38476
3.29405	9.36825
3.29196	9.21996
3.28987	9.14739
3.28778	9.09029
3.2857	9.0685
3.28362	9.09172
3.28154	9.01524
3.27946	8.94024
3.27739	9.00189
3.27532	8.98971
3.27325	8.8846
3.27119	8.91452
3.26913	8.89758
3.26707	8.89082
3.26501	8.83515
3.26295	8.79686
3.2609	8.73552
3.25885	8.72744
3.2568	8.74136
3.25476	8.61353
3.25272	8.53221
3.25068	8.53281
3.24864	8.5523
3.24661	8.50513
3.24458	8.38925
3.24255	8.39029
3.24052	8.42354
3.2385	8.377
3.23648	8.32973
3.23446	8.3005
3.23244	8.26781
3.23043	8.2579
3.22841	8.18452
3.2264	8.06957
3.2244	8.04179
3.22239	8.06906
3.22039	8.04978
3.21839	7.92934
3.2164	7.78889
3.2144	7.71777
3.21241	7.70063
3.21042	7.7057
3.20844	7.76918
3.20645	7.77733
3.20447	7.78744
3.20249	7.76656
3.20051	7.70778
3.19854	7.52283
3.19657	7.45638
3.1946	7.46777
3.19263	7.40948
3.19067	7.28033
3.1887	7.22271
3.18674	7.23904
3.18479	7.33411
3.18283	7.25974
3.18088	7.20296
3.17893	7.25536
3.17698	7.07076
3.17504	6.94927
3.17309	7.00278
3.17115	7
3.16921	7.00511
3.16728	6.95614
3.16534	6.85357
3.16341	6.8922
3.16148	6.92621
3.15956	6.78279
3.15763	6.72775
3.15571	6.67385
3.15379	6.6485
3.15187	6.77276
3.14996	6.85911
3.14805	6.83631
3.14614	6.6383
3.14423	6.49785
3.14232	6.45049
3.14042	6.4702
3.13852	6.46649
3.13662	6.30885
3.13472	6.23085
3.13283	6.29516
3.13094	6.39092
3.12905	6.39237
3.12716	6.20325
3.12528	6.06924
3.12339	6.04632
3.12151	6.15015
3.11964	6.13099
3.11776	5.98712
3.11589	6.0262
3.11401	6.02531
3.11214	5.93322
3.11028	5.86608
3.10841	5.91941
3.10655	5.91059
3.10469	5.57815
3.10283	5.40823
3.10098	5.56973
3.09912	5.48771
3.09727	5.34545
3.09542	5.39804
3.09358	5.49556
3.09173	5.54909
3.08989	5.59126
3.08805	5.43612
3.08621	5.28893
3.08437	5.13847
3.08254	5.01177
3.08071	5.05236
3.07888	5.00194
3.07705	4.89879
3.07523	4.95173
3.0734	4.84653
3.07158	4.74236
3.06977	4.67057
3.06795	4.63787
3.06613	4.47378
3.06432	4.40643
3.06251	4.52232
3.0607	4.52936
3.0589	4.37974
3.0571	4.19817
3.05529	4.16127
3.05349	4.11388
3.0517	4.13926
3.0499	4.08502
3.04811	4.05576
3.04632	4.05194
3.04453	4.02001
3.04274	3.87552
3.04096	3.79992
3.03918	3.80327
3.0374	3.68058
3.03562	3.61856
3.03384	3.54873
3.03207	3.45967
3.03029	3.44952
3.02852	3.41584
3.02676	3.3624
3.02499	3.30801
3.02323	3.22899
3.02146	3.28774
3.0197	3.34177
3.01795	3.23839
3.01619	2.98529
3.01444	2.90146
3.01269	2.99184
3.01094	2.98843
3.00919	2.96277
3.00744	2.80336
3.0057	2.66287
3.00396	2.62487
3.00222	2.61995
3.00048	2.57101
2.99875	2.51332
2.99701	2.55419
2.99528	2.57285
2.99355	2.47626
2.99183	2.24226
2.9901	2.16823
2.98838	2.19652
2.98666	2.14707
2.98494	2.00829
2.98322	1.91773
2.9815	1.94575
2.97979	1.85541
2.97808	1.66143
2.97637	1.60381
2.97466	1.69162
2.97295	1.57698
2.97125	1.43083
2.96955	1.55692
2.96785	1.69576
2.96615	1.69288
2.96446	1.73581
2.96276	1.86849
2.96107	1.85772
2.95938	1.75222
2.95769	1.66779
2.95601	1.58849
2.95432	1.65912
2.95264	1.82352
2.95096	1.8944
2.94928	1.91123
2.9476	1.88038
2.94593	1.7977
2.94425	1.80336
2.94258	1.9446
2.94092	2.06192
2.93925	2.1619
2.93758	2.07541
2.93592	2.01583
2.93426	1.98842
2.9326	2.0687
2.93094	2.23335
2.92928	2.1598
2.92763	2.05839
2.92598	2.14416
2.92433	2.31972
2.92268	2.42186
2.92103	2.39167
2.91939	2.35411
2.91775	2.31229
2.9161	2.32572
2.91447	2.33545
2.91283	2.55277
2.91119	2.61326
2.90956	2.54277
2.90793	2.73515
2.9063	2.8599
2.90467	2.77366
2.90304	2.73443
2.90142	2.86939
2.89979	3.03398
2.89817	3.06345
2.89656	3.04132
2.89494	3.12567
2.89332	3.04237
2.89171	3.106
2.8901	3.27872
2.88849	3.37345
2.88688	3.40229
2.88527	3.46387
2.88367	3.56942
2.88206	3.68551
2.88046	3.76132
2.87886	3.81494
2.87727	3.94531
2.87567	4.08413
2.87408	4.08619
2.87248	4.1734
2.87089	4.39216
2.8693	4.51913
2.86772	4.5955
2.86613	4.68047
2.86455	4.89407
2.86297	5.03387
2.86139	5.02626
2.85981	5.09048
2.85823	5.25581
2.85666	5.41013
2.85508	5.53114
2.85351	5.70549
2.85194	5.79286
2.85038	5.97725
2.84881	6.1471
2.84724	6.42356
2.84568	6.67032
2.84412	6.66644
2.84256	6.84785
2.841	7.15819
2.83945	7.40366
2.83789	7.55321
2.83634	7.56988
2.83479	7.72879
2.83324	8.00693
2.83169	8.20362
2.83015	8.35086
2.82861	8.40794
2.82706	8.64475
2.82552	8.94855
2.82398	9.03809
2.82245	9.24195
2.82091	9.61737
2.81938	9.9347
2.81784	10.0304
2.81631	10.1325
2.81479	10.454
2.81326	10.7457
2.81173	10.9128
2.81021	11.1631
2.80869	11.4759
2.80716	11.6963
2.80565	11.8855
2.80413	12.1803
2.80261	12.4728
2.8011	12.628
2.79959	12.9228
2.79808	13.3149
2.79657	13.5206
2.79506	13.6929
2.79355	14.0134
2.79205	14.2618
2.79055	14.5348
2.78904	14.9575
2.78754	15.3502
2.78605	15.5415
2.78455	15.7802
2.78306	16.1214
2.78156	16.6067
2.78007	16.8948
2.77858	17.0167
2.77709	17.3819
2.77561	17.881
2.77412	18.2873
2.77264	18.5875
2.77116	19.0168
2.76968	19.4591
2.7682	19.9443
2.76672	20.3184
2.76524	20.6303
2.76377	21.0979
2.7623	21.532
2.76083	21.7809
2.75936	22.2774
2.75789	22.8755
2.75642	23.4133
2.75496	23.9057
2.7535	24.1515
2.75203	24.5368
2.75057	24.8725
2.74912	25.3281
2.74766	25.812
2.7462	26.3322
2.74475	26.7484
2.7433	27.2612
2.74185	27.9891
2.7404	28.6962
2.73895	29.0376
2.7375	29.1007
2.73606	29.4236
2.73462	29.8667
2.73318	30.0606
2.73174	30.3734
2.7303	30.8329
2.72886	31.2649
2.72742	31.6379
2.72599	32.1552
2.72456	32.8052
2.72313	32.9807
2.7217	33.3317
2.72027	33.7751
2.71884	33.7033
2.71742	33.7198
2.71599	33.8339
2.71457	34.0085
2.71315	34.273
2.71173	34.8178
2.71032	35.0567
2.7089	34.9163
2.70748	34.7837
2.70607	34.8034
2.70466	34.9613
2.70325	35.186
2.70184	35.4353
2.70043	35.4946
2.69903	35.502
2.69762	35.6145
2.69622	35.781
2.69482	36.0668
2.69342	36.2145
2.69202	36.0436
2.69062	36.045
2.68923	36.1572
2.68783	36.2637
2.68644	36.3507
2.68505	36.3733
2.68366	36.3367
2.68227	36.3145
2.68089	36.5058
2.6795	36.8917
2.67812	36.9007
2.67673	36.9178
2.67535	36.6821
2.67397	36.4947
2.6726	36.6605
2.67122	37.33
2.66984	37.4036
2.66847	36.9622
2.6671	37.3739
2.66572	37.5791
2.66435	37.1702
2.66299	36.5247
2.66162	36.3881
2.66025	36.4917
2.65889	36.5066
2.65753	36.2723
2.65616	36.2588
2.65481	36.3125
2.65345	36.5339
2.65209	36.4486
2.65073	36.0849
2.64938	35.9657
2.64803	36.026
2.64667	36.0875
2.64532	36.1172
2.64397	35.8722
2.64263	35.6607
2.64128	35.6724
2.63994	35.7602
2.63859	35.8395
2.63725	35.8793
2.63591	35.9123
2.63457	35.9978
2.63323	35.9114
2.6319	36.0782
2.63056	36.5673
2.62923	36.336
2.62789	36.1317
2.62656	36.2961
2.62523	35.9735
2.6239	35.6755
2.62258	35.8098
2.62125	36.3283
2.61993	36.4141
2.6186	36.1179
2.61728	36.3581
2.61596	36.4086
2.61464	36.2295
2.61332	36.2323
2.61201	36.1342
2.61069	36.2684
2.60938	36.5554
2.60807	36.7711
2.60675	37.1049
2.60544	37.3211
2.60414	36.9799
2.60283	36.8972
2.60152	36.9399
2.60022	36.8748
2.59891	37.009
2.59761	37.3648
2.59631	38.0244
2.59501	38.6965
2.59371	38.3131
2.59242	37.8214
2.59112	37.8429
2.58983	37.951
2.58853	38.2875
2.58724	38.5677
2.58595	38.5948
2.58466	39.1252
2.58338	39.3875
2.58209	39.2624
2.5808	39.412
2.57952	39.4385
2.57824	39.687
2.57695	40.1366
2.57567	40.3717
2.5744	40.7095
2.57312	40.9324
2.57184	40.7754
2.57057	41.0839
2.56929	41.4657
2.56802	41.415
2.56675	41.4731
2.56548	41.9391
2.56421	42.4338
2.56294	42.6742
2.56168	42.8233
2.56041	42.8571
2.55915	42.8722
2.55789	42.9234
2.55662	42.9729
2.55536	43.071
2.5541	43.3465
2.55285	43.7348
2.55159	43.9965
2.55034	44.0768
2.54908	44.1223
2.54783	44.3473
2.54658	44.5782
2.54533	44.6568
2.54408	44.7478
2.54283	44.8652
2.54159	44.9451
2.54034	44.973
2.5391	44.9664
2.53785	45.0743
2.53661	45.3164
2.53537	45.5508
2.53413	45.5574
2.53289	45.6366
2.53166	45.6218
2.53042	45.5515
2.52919	45.6287
2.52795	45.7529
2.52672	45.7606
2.52549	45.8431
2.52426	45.9443
2.52303	45.9456
2.52181	45.8954
2.52058	45.8457
2.51936	45.91
2.51813	45.9952
2.51691	46.0633
2.51569	46.282
2.51447	46.4913
2.51325	46.5536
2.51203	46.6433
2.51082	46.8561
2.5096	46.9951
2.50839	47.2029
2.50717	47.4715
2.50596	47.6771
2.50475	47.8454
2.50354	47.9295
2.50233	48.0495
2.50113	48.2149
2.49992	48.4017
2.49872	48.5536
2.49751	48.6459
2.49631	48.7165
2.49511	48.9383
2.49391	49.0426
2.49271	49.0871
2.49151	49.1963
2.49031	49.3232
2.48912	49.4107
2.48792	49.4758
2.48673	49.5755
2.48554	49.6012
2.48435	49.5062
2.48316	49.5918
2.48197	49.8891
2.48078	49.8658
2.4796	49.8185
2.47841	49.9144
2.47723	49.9355
2.47604	50.0441
2.47486	50.0776
2.47368	49.9503
2.4725	49.9438
2.47132	49.9397
2.47014	49.9409
2.46897	50.0022
2.46779	50.0222
2.46662	50.0541
2.46545	50.0573
2.46427	49.9793
2.4631	49.8846
2.46193	49.8828
2.46077	49.9406
2.4596	49.9426
2.45843	49.9027
2.45727	49.7594
2.4561	49.7378
2.45494	49.676
2.45378	49.6021
2.45262	49.6149
2.45146	49.6227
2.4503	49.5613
2.44914	49.4452
2.44799	49.4394
2.44683	49.4421
2.44568	49.4283
2.44452	49.4028
2.44337	49.1462
2.44222	48.87
2.44107	48.7017
2.43992	48.7719
2.43877	48.7799
2.43763	48.6707
2.43648	48.5942
2.43534	48.5001
2.43419	48.556
2.43305	48.6425
2.43191	48.6894
2.43077	48.5932
2.42963	48.6407
2.42849	48.5548
2.42736	48.5216
2.42622	48.6065
2.42509	48.5343
2.42395	48.436
2.42282	48.4027
2.42169	48.482
2.42056	48.5909
2.41943	48.5478
2.4183	48.4001
2.41717	48.3592
2.41605	48.409
2.41492	48.4422
2.4138	48.5403
2.41267	48.5178
2.41155	48.4625
2.41043	48.4379
2.40931	48.4556
2.40819	48.5569
2.40707	48.7188
2.40595	48.8979
2.40484	48.9604
2.40372	49.1313
2.40261	49.3388
2.4015	49.49
2.40039	49.5225
2.39928	49.5701
2.39817	49.7257
2.39706	50.0248
2.39595	50.3251
2.39484	50.4935
2.39374	50.637
2.39263	50.6911
2.39153	50.8399
2.39043	50.9601
2.38932	51.2177
2.38822	51.4272
2.38712	51.4884
2.38603	51.6662
2.38493	51.9115
2.38383	52.0613
2.38274	52.2449
2.38164	52.4802
2.38055	52.4747
2.37946	52.521
2.37836	52.7771
2.37727	53.0173
2.37618	53.1757
2.3751	53.3239
2.37401	53.3638
2.37292	53.4032
2.37184	53.6562
2.37075	53.8648
2.36967	53.9375
2.36859	54.039
2.3675	54.2087
2.36642	54.3076
2.36534	54.3992
2.36427	54.5279
2.36319	54.5361
2.36211	54.6027
2.36104	54.643
2.35996	54.645
2.35889	54.7788
2.35781	54.9911
2.35674	55.0215
2.35567	55.0048
2.3546	55.0814
2.35353	55.2013
2.35247	55.2707
2.3514	55.311
2.35033	55.4588
2.34927	55.4522
2.3482	55.3402
2.34714	55.3213
2.34608	55.4516
2.34502	55.5787
2.34396	55.4613
2.3429	55.3954
2.34184	55.3463
2.34078	55.2537
2.33973	55.298
2.33867	55.3011
2.33762	55.2985
2.33656	55.2779
2.33551	55.2495
2.33446	55.2766
2.33341	55.1819
2.33236	55.0448
2.33131	55.1106
2.33026	55.0308
2.32922	54.7591
2.32817	54.5748
2.32712	54.4623
2.32608	54.3185
2.32504	54.1569
2.324	54.1199
2.32295	54.0436
2.32191	53.855
2.32087	53.5572
2.31984	53.3343
2.3188	53.1605
2.31776	53.2186
2.31673	53.1769
2.31569	52.9971
2.31466	52.8508
2.31362	52.8378
2.31259	52.8426
2.31156	52.9516
2.31053	53.0296
2.3095	52.7604
2.30847	52.6147
2.30745	52.7459
2.30642	52.7861
2.3054	52.6122
2.30437	52.4659
2.30335	52.2588
2.30232	52.0266
2.3013	51.8455
2.30028	51.6715
2.29926	51.6664
2.29824	51.6874
2.29722	51.6071
2.29621	51.4835
2.29519	51.2888
2.29417	51.0534
2.29316	51.1068
2.29215	51.248
2.29113	51.1255
2.29012	50.9347
2.28911	50.9339
2.2881	50.9593
2.28709	50.8637
2.28608	50.8306
2.28507	50.8149
2.28407	50.7082
2.28306	50.6767
2.28206	50.8026
2.28105	50.903
2.28005	50.942
2.27905	51.0621
2.27805	51.2303
2.27705	51.4932
2.27605	51.6833
2.27505	51.7598
2.27405	51.8321
2.27305	51.9286
2.27206	51.9671
2.27106	52.0977
2.27007	52.2371
2.26907	52.3023
2.26808	52.3897
2.26709	52.434
2.2661	52.4297
2.26511	52.3084
2.26412	52.3577
2.26313	52.4082
2.26214	52.3753
2.26116	52.347
2.26017	52.4518
2.25919	52.5945
2.2582	52.5952
2.25722	52.5997
2.25624	52.6845
2.25526	52.6801
2.25428	52.7018
2.2533	52.8797
2.25232	53.101
2.25134	53.1715
2.25036	53.2744
2.24939	53.3746
2.24841	53.5252
2.24744	53.6743
2.24646	53.9751
2.24549	54.183
2.24452	54.1109
2.24355	54.1629
2.24257	54.3754
2.24161	54.6704
2.24064	55.0072
2.23967	55.3146
2.2387	55.5935
2.23774	55.7576
2.23677	55.9928
2.23581	56.2049
2.23484	56.4014
2.23388	56.6955
2.23292	57.0161
2.23196	57.295
2.231	57.4236
2.23004	57.6767
2.22908	57.8623
2.22812	57.9798
2.22716	58.0882
2.22621	58.2049
2.22525	58.5384
2.2243	58.7473
2.22334	58.7019
2.22239	58.7624
2.22144	58.9603
2.22049	59.0278
2.21953	59.0766
2.21859	59.1855
2.21764	59.4352
2.21669	59.6476
2.21574	59.7506
2.21479	59.9325
2.21385	60.1068
2.2129	60.2842
2.21196	60.2324
2.21102	60.1909
2.21007	60.4171
2.20913	60.6091
2.20819	60.8265
2.20725	60.9757
2.20631	60.9497
2.20537	61.0145
2.20444	61.2818
2.2035	61.4286
2.20256	61.4222
2.20163	61.5024
2.20069	61.7455
2.19976	61.9196
2.19883	61.9172
2.19789	61.8613
2.19696	61.9542
2.19603	62.1781
2.1951	62.2901
2.19417	62.3961
2.19325	62.489
2.19232	62.5619
2.19139	62.6846
2.19047	62.8106
2.18954	62.7942
2.18862	62.8098
2.18769	62.8954
2.18677	62.8761
2.18585	62.8817
2.18493	63.0897
2.18401	63.2627
2.18309	63.3226
2.18217	63.3457
2.18125	63.4037
2.18033	63.4777
2.17942	63.5714
2.1785	63.7371
2.17759	63.8064
2.17667	63.9682
2.17576	64.056
2.17485	64.0974
2.17393	64.1566
2.17302	64.3447
2.17211	64.4415
2.1712	64.6609
2.17029	64.7073
2.16939	64.514
2.16848	64.5461
2.16757	64.6837
2.16667	64.6168
2.16576	64.6213
2.16486	64.8218
2.16395	65.0119
2.16305	65.1541
2.16215	65.258
2.16125	65.2618
2.16035	65.3133
2.15945	65.2956
2.15855	65.2966
2.15765	65.3499
2.15675	65.4616
2.15586	65.6167
2.15496	65.589
2.15406	65.5357
2.15317	65.6776
2.15228	65.769
2.15138	65.8995
2.15049	65.9826
2.1496	65.8301
2.14871	65.7782
2.14782	65.9678
2.14693	65.9491
2.14604	65.9963
2.14515	66.1773
2.14427	66.2867
2.14338	66.289
2.14249	66.2575
2.14161	66.1826
2.14072	66.2583
2.13984	66.3442
2.13896	66.3086
2.13808	66.2887
2.13719	66.3945
2.13631	66.627
2.13543	66.7732
2.13455	66.7798
2.13368	66.7175
2.1328	66.8097
2.13192	66.8257
2.13105	66.8141
2.13017	67.0056
2.1293	67.0653
2.12842	66.9414
2.12755	66.9396
2.12668	66.9172
2.1258	66.8128
2.12493	66.7898
2.12406	66.8616
2.12319	66.8184
2.12232	66.9325
2.12145	66.8119
2.12059	66.7862
2.11972	67.0589
2.11885	67.1153
2.11799	66.9547
2.11712	66.952
2.11626	66.9753
2.1154	67.1224
2.11453	67.1743
2.11367	67.1649
2.11281	67.1414
2.11195	67.1278
2.11109	67.072
2.11023	67.2261
2.10937	67.4208
2.10851	67.4901
2.10766	67.3953
2.1068	67.2593
2.10594	67.3134
2.10509	67.4383
2.10423	67.3418
2.10338	67.2556
2.10253	67.3696
2.10168	67.4669
2.10082	67.308
2.09997	67.2184
2.09912	67.3404
2.09827	67.4461
2.09742	67.4422
2.09658	67.3121
2.09573	67.3356
2.09488	67.4953
2.09404	67.49
2.09319	67.3442
2.09235	67.2605
2.0915	67.3739
2.09066	67.61
2.08982	67.8505
2.08897	67.6193
2.08813	67.491
2.08729	67.5605
2.08645	67.5138
2.08561	67.4177
2.08477	67.313
2.08394	67.2109
2.0831	67.2812
2.08226	67.3147
2.08143	67.4096
2.08059	67.6401
2.07976	67.7083
2.07892	67.4585
2.07809	67.329
2.07726	67.3005
2.07643	67.5468
2.07559	67.7787
2.07476	67.5673
2.07393	67.45
2.0731	67.2483
2.07228	67.2441
2.07145	67.4524
2.07062	67.3631
2.06979	67.3729
2.06897	67.3513
2.06814	67.3603
2.06732	67.3997
2.06649	67.2852
2.06567	67.1263
2.06485	67.0759
2.06403	67.0623
2.0632	67.1219
2.06238	67.2688
2.06156	67.1861
2.06074	67.003
2.05993	67.0444
2.05911	67.1739
2.05829	67.1625
2.05747	67.2384
2.05666	67.2824
2.05584	67.1485
2.05503	67.2136
2.05421	66.9199
2.0534	66.8446
2.05259	67.1353
2.05177	67.1428
2.05096	67.1289
2.05015	67.1441
2.04934	67.1305
2.04853	67.0841
2.04772	67.2021
2.04691	67.3439
2.04611	67.559
2.0453	67.4477
2.04449	67.3084
2.04369	67.264
2.04288	67.2318
2.04208	67.1468
2.04127	67.1821
2.04047	67.2901
2.03967	67.3279
2.03886	67.2188
2.03806	67.1207
2.03726	67.2143
2.03646	67.4593
2.03566	67.5094
2.03486	67.4365
2.03407	67.4135
2.03327	67.4709
2.03247	67.4233
2.03167	67.3086
2.03088	67.1197
2.03008	66.956
2.02929	67.3394
2.0285	67.6297
2.0277	67.718
2.02691	67.9169
2.02612	67.8625
2.02533	67.5365
2.02453	67.3654
2.02374	67.5302
2.02295	67.5128
2.02217	67.5451
2.02138	67.752
2.02059	67.8682
2.0198	67.9183
2.01902	67.7954
2.01823	67.7277
2.01744	67.7279
2.01666	67.8184
2.01588	67.9081
2.01509	67.8967
2.01431	67.9031
2.01353	67.9034
2.01275	67.859
2.01196	67.9996
2.01118	68.0673
2.0104	67.8541
2.00963	67.8888
2.00885	68.2373
2.00807	68.2397
2.00729	68.1932
2.00651	68.1496
2.00574	68.1414
2.00496	68.1832
2.00419	68.2982
2.00341	68.3431
2.00264	68.1083
2.00187	68.0406
2.00109	68.0959
2.00032	68.0077
