Name: Anglesite PbSO_4
Type: Mineral
Class: Sulfates
Subclass: 
Particle Size: 125-500um
Sample No.: SO-10A
Owner: JPL
Wavelength range: IR
Origin: USA, Arizona, Santa Cruz County, Glove Mine
Collected by JPL
Description: 





Measurement: Hemispherical reflectance
First Column: X
Second Column: Y
X Units:  Wavelength (micrometers)
Y Units:  Reflectance (percent)
First X Value: 15.3853
Last X Value: 2.00032
Number of X Values: 2256
Additional information: so10aa.txt
 
15.3853	2.66109
15.3397	2.64338
15.2945	2.8099
15.2495	3.02748
15.2048	2.91502
15.1603	2.85146
15.1161	2.91702
15.0722	2.86793
15.0285	2.85401
14.9851	2.97551
14.9419	3.11059
14.8989	3.28149
14.8563	3.58522
14.8138	3.90888
14.7716	4.45884
14.7296	4.64833
14.6879	4.2352
14.6464	4.09016
14.6052	3.911
14.5641	3.71923
14.5233	4.04487
14.4828	4.34772
14.4424	4.43423
14.4023	4.58425
14.3624	4.62722
14.3227	4.58689
14.2833	4.59547
14.244	4.80351
14.205	5.00163
14.1662	5.19984
14.1276	5.2838
14.0892	5.29157
14.051	5.25466
14.0131	5.52535
13.9753	5.74321
13.9377	5.60634
13.9004	5.54331
13.8632	5.62358
13.8262	5.74347
13.7895	5.67945
13.7529	5.64418
13.7165	5.65167
13.6803	5.63284
13.6443	5.69868
13.6085	5.52101
13.5729	5.52019
13.5374	5.79208
13.5022	5.92467
13.4671	5.91609
13.4322	5.91284
13.3975	5.98993
13.363	6.11406
13.3286	6.10529
13.2944	6.04256
13.2604	6.20207
13.2266	6.37903
13.193	6.31583
13.1595	6.2861
13.1262	6.38021
13.093	6.46907
13.06	6.38958
13.0272	6.30901
12.9946	6.31732
12.9621	6.4215
12.9298	6.48172
12.8976	6.52594
12.8656	6.46749
12.8337	6.4587
12.8021	6.54591
12.7705	6.52576
12.7391	6.63363
12.7079	6.7802
12.6769	6.67936
12.6459	6.67979
12.6152	6.83428
12.5845	6.95241
12.5541	6.89842
12.5238	6.84759
12.4936	6.86039
12.4635	7.13252
12.4337	7.2303
12.4039	7.14079
12.3743	7.1658
12.3448	7.06138
12.3155	6.97985
12.2863	6.98581
12.2573	7.06493
12.2284	7.14481
12.1996	7.24628
12.171	7.20071
12.1425	6.99353
12.1141	6.94827
12.0859	7.058
12.0578	7.19959
12.0298	7.26978
12.0019	7.35546
11.9742	7.34058
11.9466	7.50467
11.9192	7.68995
11.8918	7.63967
11.8646	7.4841
11.8375	7.16404
11.8106	6.8813
11.7837	6.81662
11.757	6.81183
11.7304	6.6853
11.7039	6.64096
11.6776	6.67458
11.6513	6.81558
11.6252	6.84123
11.5992	6.72062
11.5733	6.51227
11.5475	6.4496
11.5219	6.38695
11.4963	6.30376
11.4709	6.231
11.4455	6.11622
11.4203	6.15842
11.3952	6.27704
11.3702	6.23643
11.3454	6.12988
11.3206	6.00857
11.2959	5.98086
11.2714	6.00707
11.2469	5.91569
11.2226	5.91123
11.1983	5.84593
11.1742	5.79167
11.1502	5.74776
11.1263	5.76572
11.1024	5.82787
11.0787	5.81739
11.0551	5.73687
11.0316	5.72009
11.0081	5.86345
10.9848	5.98353
10.9616	5.92626
10.9385	5.87907
10.9154	5.79011
10.8925	5.72159
10.8697	5.7825
10.8469	5.71086
10.8243	5.76004
10.8017	5.7834
10.7793	5.72238
10.7569	5.78339
10.7346	5.84522
10.7125	5.91448
10.6904	5.95144
10.6684	5.9938
10.6465	5.99224
10.6247	6.03019
10.6029	6.18629
10.5813	6.35165
10.5597	6.37849
10.5383	6.27455
10.5169	6.19949
10.4956	6.26173
10.4744	6.33336
10.4533	6.42509
10.4323	6.46862
10.4113	6.56449
10.3904	6.6912
10.3697	6.80676
10.349	6.92057
10.3284	6.70475
10.3078	6.19207
10.2874	5.87399
10.267	5.96853
10.2467	6.22414
10.2265	6.41056
10.2064	6.46684
10.1863	6.5682
10.1663	6.78063
10.1464	6.90414
10.1266	6.99767
10.1069	7.1193
10.0872	7.2829
10.0676	7.47504
10.0481	7.70884
10.0287	7.83467
10.0093	7.85097
9.99005	7.91607
9.97084	8.09423
9.95169	8.19963
9.93263	8.28082
9.91364	8.56962
9.89472	8.7197
9.87587	8.77122
9.8571	8.93421
9.83839	9.18885
9.81976	9.51936
9.80119	9.73412
9.78271	10.0119
9.76428	10.376
9.74592	10.6657
9.72764	10.8357
9.70943	11.0944
9.69128	11.2945
9.6732	11.5724
9.65518	11.85
9.63724	12.0801
9.61935	12.3549
9.60155	12.6651
9.5838	12.8649
9.56611	13.0539
9.5485	13.3536
9.53094	13.6613
9.51345	13.8822
9.49604	13.9739
9.47867	14.1151
9.46137	14.2519
9.44414	14.2957
9.42697	14.3899
9.40986	14.6239
9.39281	14.7724
9.37583	14.6651
9.35891	14.5335
9.34204	14.5554
9.32524	14.484
9.3085	14.3051
9.29182	14.2711
9.27519	14.1969
9.25863	14.0354
9.24213	13.9052
9.22568	13.7356
9.2093	13.492
9.19297	13.436
9.17669	13.4726
9.16048	13.4324
9.14433	13.2774
9.12823	13.0182
9.11218	12.8408
9.0962	12.936
9.08027	12.8151
9.06439	12.5805
9.04858	12.3488
9.03281	12.2291
9.0171	12.057
9.00145	11.8932
8.98585	11.7657
8.9703	11.6799
8.9548	11.6225
8.93937	11.4387
8.92398	11.2933
8.90865	11.205
8.89337	11.0707
8.87814	10.7594
8.86296	10.4509
8.84784	10.2664
8.83277	9.91347
8.81774	9.33497
8.80277	8.98928
8.78786	8.67079
8.77298	8.17434
8.75816	7.70789
8.7434	7.49825
8.72868	7.13029
8.714	6.66282
8.69938	6.32438
8.68481	6.00072
8.67029	5.55241
8.65581	5.35236
8.64139	5.19732
8.62701	5.08713
8.61268	5.15463
8.5984	5.20991
8.58416	5.21528
8.56997	5.17881
8.55583	5.1988
8.54174	5.30165
8.52769	5.42253
8.51368	5.53581
8.49973	5.60167
8.48582	5.77171
8.47195	5.84143
8.45813	5.80746
8.44436	5.86978
8.43062	5.97712
8.41693	6.01477
8.4033	5.99518
8.3897	6.01476
8.37614	5.97423
8.36264	5.93265
8.34917	6.01349
8.33574	6.05067
8.32236	5.94234
8.30903	5.75415
8.29573	5.75644
8.28248	5.77285
8.26927	5.57548
8.2561	5.35602
8.24298	5.18828
8.2299	4.96491
8.21685	4.67597
8.20385	4.50285
8.19089	4.24374
8.17797	3.83648
8.16509	3.51139
8.15225	3.31814
8.13946	3.0835
8.1267	2.87862
8.11398	2.63162
8.10131	2.35467
8.08867	2.17831
8.07606	2.05109
8.0635	1.96409
8.05099	1.95605
8.0385	1.84978
8.02606	1.7137
8.01366	1.73373
8.00129	1.83607
7.98896	1.82646
7.97667	1.74587
7.96442	1.79109
7.9522	1.81565
7.94002	1.84581
7.92788	1.84578
7.91578	1.84368
7.90371	1.85089
7.89168	1.88119
7.87969	1.9511
7.86773	1.95005
7.85581	1.96142
7.84392	2.01497
7.83207	2.09488
7.82026	2.26904
7.80849	2.34943
7.79674	2.27594
7.78503	2.30497
7.77337	2.47745
7.76173	2.56329
7.75012	2.59465
7.73856	2.66794
7.72703	2.7125
7.71553	2.80016
7.70406	2.95406
7.69263	3.00635
7.68123	2.99513
7.66987	3.11834
7.65855	3.25403
7.64725	3.33427
7.63598	3.38815
7.62475	3.55911
7.61356	3.72857
7.60239	3.80086
7.59126	3.97917
7.58017	4.05422
7.5691	3.99077
7.55806	4.0807
7.54707	4.26976
7.5361	4.44395
7.52516	4.5743
7.51425	4.67883
7.50338	4.80594
7.49253	4.94177
7.48172	4.99529
7.47094	5.13334
7.46019	5.332
7.44947	5.50412
7.43879	5.65253
7.42813	5.78209
7.4175	5.97791
7.4069	6.19867
7.39634	6.37762
7.3858	6.61982
7.37529	6.84925
7.36482	7.03113
7.35437	7.28426
7.34396	7.60052
7.33357	7.9194
7.32321	8.27178
7.31288	8.61095
7.30258	8.88276
7.29231	9.21761
7.28207	9.65077
7.27185	10.1275
7.26167	10.5147
7.25152	10.8813
7.24139	11.2202
7.23129	11.6209
7.22122	12.0356
7.21117	12.3434
7.20116	12.5622
7.19117	12.7574
7.18121	12.9757
7.17128	13.1872
7.16137	13.3368
7.1515	13.4775
7.14164	13.5303
7.13182	13.6136
7.12203	13.6986
7.11225	13.7683
7.10251	13.888
7.0928	13.9423
7.08311	14.0012
7.07344	14.1038
7.06381	14.1043
7.0542	14.1213
7.04461	14.048
7.03506	13.8183
7.02552	13.7548
7.01601	13.7223
7.00653	13.7491
6.99708	13.7716
6.98765	13.7724
6.97824	13.724
6.96886	13.7346
6.95951	13.7359
6.95018	13.4646
6.94087	13.254
6.9316	13.1368
6.92234	12.9453
6.91311	12.7193
6.90391	12.4924
6.89473	12.1732
6.88557	11.8869
6.87644	11.7275
6.86733	11.6091
6.85824	11.1942
6.84918	10.5928
6.84015	10.2473
6.83114	10.0936
6.82215	9.73397
6.81319	9.28051
6.80424	8.95995
6.79532	8.78058
6.78643	8.59925
6.77756	8.35823
6.76871	8.16452
6.75989	7.90521
6.75109	7.74442
6.74231	7.6047
6.73355	7.48707
6.72482	7.35718
6.71611	7.37192
6.70742	7.36299
6.69875	7.24891
6.69011	7.25782
6.68149	7.34857
6.67289	7.3672
6.66431	7.46015
6.65576	7.57017
6.64722	7.76032
6.63871	7.98937
6.63022	8.01265
6.62175	8.11234
6.61331	8.26431
6.60488	8.46798
6.59648	8.78381
6.5881	9.03973
6.57974	9.227
6.5714	9.50901
6.56308	9.64657
6.55478	9.73923
6.54651	9.89301
6.53825	10.0974
6.53001	10.2444
6.5218	10.4556
6.51361	10.5526
6.50544	10.6689
6.49729	10.9922
6.48915	11.0976
6.48104	10.9773
6.47295	11.0099
6.46488	10.9805
6.45683	10.886
6.4488	10.8463
6.44079	10.7067
6.4328	10.5202
6.42482	10.2517
6.41687	10.032
6.40894	9.53759
6.40103	8.95378
6.39314	8.65281
6.38526	8.46381
6.37741	8.36563
6.36957	8.33727
6.36176	8.19951
6.35396	8.23469
6.34618	8.36612
6.33843	8.33116
6.33069	8.37054
6.32297	8.57179
6.31527	8.85849
6.30758	9.20248
6.29992	9.44384
6.29227	9.66519
6.28465	9.99444
6.27704	10.3891
6.26945	10.6711
6.26188	10.9998
6.25432	11.3116
6.24679	11.5774
6.23927	11.9211
6.23177	12.287
6.22429	12.622
6.21683	12.9807
6.20938	13.4664
6.20195	14.0051
6.19454	14.449
6.18715	15.0794
6.17978	15.5139
6.17242	15.8879
6.16508	16.403
6.15776	16.8385
6.15045	17.1623
6.14317	17.4722
6.1359	17.6216
6.12864	17.7722
6.12141	18.1211
6.11419	18.5229
6.10699	18.5251
6.0998	18.502
6.09263	18.6388
6.08549	18.8326
6.07835	19.1328
6.07123	19.3954
6.06413	19.4578
6.05705	19.7846
6.04998	20.3737
6.04293	20.2219
6.0359	19.9267
6.02888	20.0035
6.02187	20.2775
6.01489	20.6492
6.00792	20.86
6.00096	21.0794
5.99403	21.4427
5.98711	21.7435
5.9802	21.8596
5.97331	22.1628
5.96644	22.5176
5.95958	22.6009
5.95274	22.8299
5.94591	23.2275
5.9391	23.8887
5.9323	24.1659
5.92552	24.081
5.91876	24.2316
5.91201	24.4716
5.90528	24.7693
5.89856	25.2584
5.89186	25.5297
5.88517	25.9512
5.8785	26.1445
5.87184	25.9326
5.8652	26.1821
5.85857	26.299
5.85196	26.3449
5.84536	26.4087
5.83878	26.5719
5.83221	26.7145
5.82566	26.799
5.81912	26.5396
5.81259	25.9294
5.80608	25.6117
5.79959	25.492
5.79311	25.3666
5.78665	25.3927
5.78019	25.4869
5.77376	25.8172
5.76734	26.2668
5.76093	26.039
5.75453	25.7833
5.74815	25.8839
5.74179	25.8532
5.73543	26.0101
5.7291	26.3197
5.72277	26.797
5.71646	27.5412
5.71017	28.2889
5.70389	28.7159
5.69762	29.0089
5.69136	29.3031
5.68513	29.4867
5.6789	29.7167
5.67268	29.819
5.66648	29.6762
5.6603	29.7097
5.65413	29.704
5.64797	29.7265
5.64182	29.8245
5.63569	29.5894
5.62957	29.3935
5.62347	29.4002
5.61737	29.4426
5.61129	29.404
5.60522	29.34
5.59917	29.3463
5.59313	29.4234
5.5871	29.606
5.58109	29.8513
5.57509	29.9811
5.5691	29.9959
5.56312	30.0983
5.55716	30.2321
5.55121	30.3225
5.54528	30.2656
5.53935	30.287
5.53344	30.3559
5.52754	30.4196
5.52166	30.4265
5.51578	30.4225
5.50992	30.3969
5.50407	30.4704
5.49823	30.5239
5.49241	30.62
5.4866	30.698
5.4808	30.8036
5.47501	30.8176
5.46923	30.8816
5.46347	30.9706
5.45772	30.8249
5.45198	30.7266
5.44625	30.7305
5.44054	30.6823
5.43484	30.5553
5.42914	30.5032
5.42347	30.5246
5.4178	30.3043
5.41214	29.9511
5.4065	29.6437
5.40087	29.3562
5.39525	29.0961
5.38964	28.8206
5.38404	28.5561
5.37846	28.2635
5.37288	27.9325
5.36732	27.5688
5.36177	27.2551
5.35623	27.0381
5.35071	26.7261
5.34519	26.2824
5.33968	25.8324
5.33419	25.4655
5.32871	25.0918
5.32324	24.6314
5.31778	24.1648
5.31233	23.8084
5.30689	23.4198
5.30147	23.012
5.29605	22.6162
5.29065	22.245
5.28525	21.8178
5.27987	21.4073
5.2745	21.0791
5.26914	20.8808
5.26379	20.6274
5.25845	20.2729
5.25312	20.0155
5.24781	19.6903
5.2425	19.2722
5.23721	18.8549
5.23192	18.3074
5.22665	17.7733
5.22138	17.2212
5.21613	16.5549
5.21089	15.7858
5.20566	15.0603
5.20044	14.2593
5.19522	13.3882
5.19002	12.6685
5.18483	11.9612
5.17965	11.2833
5.17448	10.7317
5.16933	10.3378
5.16418	10.1699
5.15904	10.1625
5.15391	10.2802
5.14879	10.4588
5.14368	10.6894
5.13859	10.8891
5.1335	11.0041
5.12842	10.9275
5.12335	10.7413
5.1183	10.4126
5.11325	10.0616
5.10821	9.7614
5.10318	9.4375
5.09817	9.12154
5.09316	8.84404
5.08816	8.58902
5.08317	8.37335
5.07819	8.15707
5.07322	7.99658
5.06826	7.84527
5.06331	7.63282
5.05837	7.5103
5.05344	7.37013
5.04852	7.21018
5.04361	7.04728
5.03871	6.81238
5.03382	6.58403
5.02894	6.49352
5.02406	6.39409
5.0192	6.27043
5.01435	6.18425
5.0095	6.20092
5.00467	6.15164
4.99984	6.08355
4.99502	6.01075
4.99021	5.9075
4.98542	5.75953
4.98063	5.65126
4.97585	5.6722
4.97108	5.69349
4.96632	5.64095
4.96156	5.64634
4.95682	5.68752
4.95209	5.69676
4.94736	5.69949
4.94264	5.71059
4.93794	5.71277
4.93324	5.69425
4.92855	5.70602
4.92387	5.71244
4.9192	5.61769
4.91453	5.5836
4.90988	5.61702
4.90524	5.68905
4.9006	5.69661
4.89597	5.65459
4.89135	5.71966
4.88674	5.91408
4.88214	6.06624
4.87755	6.05735
4.87296	6.09339
4.86839	6.17628
4.86382	6.16494
4.85926	6.2197
4.85471	6.31707
4.85017	6.35528
4.84564	6.40764
4.84111	6.59206
4.8366	6.72689
4.83209	6.72078
4.82759	6.76939
4.8231	6.8226
4.81862	6.94699
4.81415	7.00533
4.80968	6.91833
4.80522	6.91973
4.80077	7.02628
4.79633	7.07647
4.7919	7.02754
4.78747	6.96174
4.78306	6.98895
4.77865	7.01162
4.77425	6.9235
4.76986	6.88636
4.76547	6.90257
4.7611	6.84574
4.75673	6.80577
4.75237	6.83483
4.74802	6.79975
4.74367	6.77367
4.73934	6.74473
4.73501	6.74635
4.73069	6.7516
4.72638	6.78282
4.72207	6.89242
4.71777	6.87016
4.71348	6.81366
4.7092	6.76875
4.70493	6.82811
4.70066	6.94487
4.69641	7.0097
4.69216	7.09905
4.68791	7.16318
4.68368	7.21051
4.67945	7.18641
4.67523	7.17549
4.67102	7.22988
4.66682	7.29225
4.66262	7.30858
4.65843	7.36807
4.65425	7.40938
4.65007	7.45781
4.64591	7.49625
4.64175	7.58092
4.6376	7.70841
4.63345	7.84895
4.62932	7.97
4.62519	8.11973
4.62106	8.31317
4.61695	8.46909
4.61284	8.64982
4.60874	8.7918
4.60465	8.91993
4.60056	9.07313
4.59648	9.18202
4.59241	9.30279
4.58835	9.45444
4.58429	9.62429
4.58024	9.74974
4.5762	9.94268
4.57216	10.2285
4.56814	10.4314
4.56411	10.5717
4.5601	10.6475
4.55609	10.7833
4.55209	10.9775
4.5481	11.1022
4.54411	11.2118
4.54013	11.3763
4.53616	11.5213
4.5322	11.6588
4.52824	11.7806
4.52429	11.8582
4.52034	11.9326
4.51641	12.0167
4.51247	12.0906
4.50855	12.1849
4.50463	12.2826
4.50072	12.4192
4.49682	12.571
4.49292	12.6344
4.48903	12.6635
4.48515	12.7686
4.48127	12.8976
4.4774	12.9668
4.47354	13.0721
4.46968	13.2237
4.46584	13.4047
4.46199	13.4418
4.45815	13.5181
4.45432	13.6364
4.4505	13.7224
4.44668	13.7898
4.44287	13.8655
4.43907	14.0132
4.43527	14.1431
4.43148	14.2209
4.4277	14.1932
4.42392	14.187
4.42015	14.2084
4.41638	14.3445
4.41262	14.495
4.40887	14.5374
4.40513	14.5856
4.40139	14.6273
4.39765	14.692
4.39393	14.7514
4.39021	14.7568
4.38649	14.7604
4.38278	14.8206
4.37908	14.8581
4.37539	14.8834
4.3717	14.9165
4.36801	14.9383
4.36434	14.9623
4.36067	14.9145
4.357	14.8687
4.35335	14.8631
4.34969	14.7993
4.34605	14.7675
4.34241	14.7306
4.33877	14.7102
4.33514	14.6561
4.33152	14.6324
4.32791	14.6672
4.3243	14.6586
4.32069	14.5712
4.3171	14.5657
4.31351	14.5535
4.30992	14.5193
4.30634	14.5807
4.30277	14.6205
4.2992	14.6582
4.29564	14.66
4.29208	14.6639
4.28853	14.6522
4.28499	14.7256
4.28145	14.7799
4.27792	14.7965
4.27439	14.8483
4.27087	14.9159
4.26735	14.9879
4.26384	15.0955
4.26034	15.3118
4.25684	15.5112
4.25335	15.6846
4.24986	15.9331
4.24638	16.2449
4.24291	16.5742
4.23944	16.8532
4.23598	17.0661
4.23252	17.3119
4.22906	17.6698
4.22562	18.0551
4.22218	18.3973
4.21874	18.769
4.21531	19.1762
4.21189	19.5702
4.20847	20.0005
4.20506	20.4112
4.20165	20.8352
4.19825	21.2872
4.19485	21.6348
4.19146	21.9912
4.18807	22.3807
4.18469	22.7131
4.18132	23.0194
4.17795	23.3381
4.17458	23.6106
4.17123	23.892
4.16787	24.2831
4.16453	24.5647
4.16118	24.7765
4.15785	25.0646
4.15451	25.3712
4.15119	25.6076
4.14787	25.8178
4.14455	26.0823
4.14124	26.3846
4.13794	26.6386
4.13464	26.8816
4.13134	27.2181
4.12805	27.5757
4.12477	27.8007
4.12149	27.9398
4.11822	28.2046
4.11495	28.4564
4.11168	28.7127
4.10843	28.937
4.10517	29.1688
4.10192	29.4116
4.09868	29.6659
4.09545	29.8274
4.09221	29.9368
4.08899	30.1039
4.08576	30.344
4.08255	30.5526
4.07933	30.7021
4.07613	30.7807
4.07292	30.8827
4.06973	31.0403
4.06654	31.2169
4.06335	31.3342
4.06017	31.4102
4.05699	31.5387
4.05382	31.6143
4.05065	31.6803
4.04749	31.8102
4.04433	31.9121
4.04118	31.9957
4.03803	32.1012
4.03489	32.2292
4.03175	32.4004
4.02862	32.5557
4.02549	32.651
4.02237	32.6915
4.01925	32.8167
4.01614	32.9255
4.01303	33.0112
4.00993	33.0485
4.00683	33.1018
4.00373	33.2
4.00064	33.3033
3.99756	33.3522
3.99448	33.4825
3.9914	33.594
3.98833	33.5914
3.98527	33.5953
3.98221	33.6461
3.97915	33.7346
3.9761	33.8142
3.97305	33.7985
3.97001	33.7968
3.96697	33.9121
3.96394	34.0044
3.96091	33.9447
3.95789	33.9696
3.95487	34.0016
3.95186	34.0499
3.94885	34.1781
3.94584	34.2857
3.94284	34.4519
3.93984	34.5358
3.93685	34.6106
3.93386	34.8556
3.93088	35.0974
3.9279	35.3146
3.92493	35.5148
3.92196	35.7825
3.919	36.0439
3.91604	36.3336
3.91308	36.5961
3.91013	36.7912
3.90718	36.9711
3.90424	37.1116
3.9013	37.307
3.89837	37.5308
3.89544	37.6624
3.89252	37.8038
3.8896	37.9793
3.88668	38.055
3.88377	38.1382
3.88086	38.3447
3.87796	38.5319
3.87506	38.6036
3.87217	38.6135
3.86928	38.6671
3.86639	38.6636
3.86351	38.6515
3.86064	38.7264
3.85776	38.8234
3.8549	38.9028
3.85203	38.8889
3.84917	38.8872
3.84631	38.9754
3.84346	38.9994
3.84062	38.9432
3.83777	38.8941
3.83494	38.8326
3.8321	38.821
3.82927	38.8705
3.82644	38.8397
3.82362	38.7847
3.82081	38.7183
3.81799	38.6514
3.81518	38.592
3.81238	38.5474
3.80958	38.501
3.80678	38.4781
3.80399	38.3677
3.8012	38.2745
3.79841	38.2443
3.79563	38.2184
3.79286	38.1711
3.79008	38.1323
3.78731	38.0191
3.78455	37.9644
3.78179	37.9003
3.77903	37.7703
3.77628	37.6461
3.77353	37.5889
3.77079	37.5189
3.76805	37.3893
3.76531	37.2474
3.76258	37.1412
3.75985	37.0462
3.75713	36.9146
3.7544	36.8045
3.75169	36.7196
3.74898	36.5864
3.74627	36.5029
3.74356	36.4076
3.74086	36.3309
3.73816	36.2344
3.73547	36.1539
3.73278	36.0379
3.7301	35.9533
3.72741	35.9219
3.72474	35.901
3.72206	35.8405
3.71939	35.7009
3.71673	35.5848
3.71406	35.532
3.71141	35.4314
3.70875	35.3848
3.7061	35.3572
3.70345	35.1855
3.70081	34.9941
3.69817	34.9394
3.69553	34.802
3.6929	34.5759
3.69027	34.4443
3.68765	34.388
3.68503	34.3291
3.68241	34.136
3.6798	33.9735
3.67719	33.943
3.67458	33.9188
3.67198	33.8002
3.66938	33.6412
3.66678	33.6028
3.66419	33.5498
3.66161	33.4436
3.65902	33.4382
3.65644	33.3948
3.65387	33.3234
3.65129	33.3242
3.64872	33.2934
3.64616	33.2876
3.64359	33.3298
3.64103	33.334
3.63848	33.279
3.63593	33.2524
3.63338	33.2625
3.63084	33.309
3.6283	33.3801
3.62576	33.433
3.62322	33.4033
3.62069	33.335
3.61817	33.2345
3.61564	33.2097
3.61312	33.2052
3.61061	33.1804
3.6081	33.1835
3.60559	33.1475
3.60308	33.1192
3.60058	33.1497
3.59808	33.1366
3.59558	33.1146
3.59309	33.0611
3.59061	33.0266
3.58812	32.999
3.58564	33.0687
3.58316	33.0521
3.58069	32.968
3.57822	33.0155
3.57575	33.036
3.57328	32.9937
3.57082	32.9781
3.56836	32.9451
3.56591	32.836
3.56346	32.7587
3.56101	32.8273
3.55857	32.8828
3.55613	32.9716
3.55369	32.9867
3.55126	32.844
3.54883	32.7782
3.5464	32.8593
3.54397	32.8765
3.54155	32.8112
3.53914	32.8375
3.53672	32.8532
3.53431	32.7981
3.5319	32.7692
3.5295	32.8488
3.5271	32.8778
3.5247	32.8308
3.52231	32.7761
3.51991	32.7589
3.51753	32.8349
3.51514	32.8554
3.51276	32.9247
3.51038	32.9786
3.50801	32.9845
3.50563	33.0281
3.50327	33.0946
3.5009	33.0367
3.49854	33.0671
3.49618	33.162
3.49382	33.1975
3.49147	33.1963
3.48912	33.2745
3.48677	33.3682
3.48443	33.3925
3.48209	33.4568
3.47975	33.5429
3.47742	33.5466
3.47509	33.4522
3.47276	33.4565
3.47044	33.5844
3.46812	33.6444
3.4658	33.6006
3.46348	33.6634
3.46117	33.6612
3.45886	33.5974
3.45656	33.6478
3.45425	33.6697
3.45195	33.6166
3.44966	33.5313
3.44736	33.5522
3.44507	33.6342
3.44279	33.6705
3.4405	33.6729
3.43822	33.7263
3.43594	33.7646
3.43367	33.7119
3.43139	33.6608
3.42912	33.6463
3.42686	33.5983
3.42459	33.5024
3.42233	33.4711
3.42007	33.4768
3.41782	33.4079
3.41557	33.3558
3.41332	33.3583
3.41108	33.3476
3.40883	33.3139
3.40659	33.2823
3.40435	33.298
3.40212	33.3419
3.39989	33.3052
3.39766	33.2808
3.39544	33.3153
3.39322	33.3256
3.391	33.3407
3.38878	33.3015
3.38657	33.2536
3.38436	33.2447
3.38215	33.1789
3.37994	32.977
3.37774	32.9282
3.37554	33.0669
3.37335	33.2072
3.37115	33.2187
3.36896	33.0551
3.36678	32.9437
3.36459	33.0081
3.36241	33.1243
3.36023	33.1892
3.35805	33.2111
3.35588	33.2142
3.35371	33.157
3.35154	33.1839
3.34938	33.279
3.34721	33.3775
3.34505	33.4183
3.3429	33.4459
3.34074	33.4928
3.33859	33.4599
3.33644	33.4479
3.3343	33.5748
3.33215	33.5608
3.33001	33.5272
3.32788	33.5558
3.32574	33.5996
3.32361	33.6582
3.32148	33.6849
3.31936	33.6771
3.31723	33.6443
3.31511	33.5778
3.31299	33.519
3.31088	33.5292
3.30876	33.5037
3.30665	33.4042
3.30455	33.3398
3.30244	33.3785
3.30034	33.3588
3.29824	33.2655
3.29614	33.2222
3.29405	33.2457
3.29196	33.2287
3.28987	33.1472
3.28778	33.0672
3.2857	32.8838
3.28362	32.7216
3.28154	32.7504
3.27946	32.7322
3.27739	32.6372
3.27532	32.4901
3.27325	32.4185
3.27119	32.3844
3.26913	32.3471
3.26707	32.3523
3.26501	32.2607
3.26295	32.1535
3.2609	32.0487
3.25885	31.8976
3.2568	31.8784
3.25476	31.8668
3.25272	31.7757
3.25068	31.6298
3.24864	31.5156
3.24661	31.4406
3.24458	31.3753
3.24255	31.3738
3.24052	31.3815
3.2385	31.2699
3.23648	31.2438
3.23446	31.2348
3.23244	31.2014
3.23043	31.2725
3.22841	31.2877
3.2264	31.264
3.2244	31.191
3.22239	31.1516
3.22039	31.2028
3.21839	31.2399
3.2164	31.2189
3.2144	31.1862
3.21241	31.1376
3.21042	31.17
3.20844	31.1396
3.20645	31.0198
3.20447	30.9305
3.20249	31.0162
3.20051	31.1283
3.19854	31.0262
3.19657	30.8573
3.1946	30.7011
3.19263	30.7217
3.19067	30.7896
3.1887	30.7607
3.18674	30.7283
3.18479	30.7187
3.18283	30.6117
3.18088	30.4888
3.17893	30.4038
3.17698	30.3426
3.17504	30.3739
3.17309	30.4204
3.17115	30.3646
3.16921	30.346
3.16728	30.253
3.16534	30.1612
3.16341	30.189
3.16148	30.1374
3.15956	30.0517
3.15763	30.0272
3.15571	30.0326
3.15379	29.9699
3.15187	29.9346
3.14996	29.8915
3.14805	29.8302
3.14614	29.7911
3.14423	29.7052
3.14232	29.6158
3.14042	29.5845
3.13852	29.6376
3.13662	29.4654
3.13472	29.3519
3.13283	29.3968
3.13094	29.3646
3.12905	29.2904
3.12716	29.211
3.12528	29.0918
3.12339	29.0341
3.12151	29.0432
3.11964	29.1283
3.11776	29.1295
3.11589	29.0022
3.11401	29.0314
3.11214	29.0634
3.11028	28.8658
3.10841	28.7127
3.10655	28.674
3.10469	28.6172
3.10283	28.6914
3.10098	28.7057
3.09912	28.5908
3.09727	28.5871
3.09542	28.59
3.09358	28.6262
3.09173	28.6158
3.08989	28.5067
3.08805	28.4499
3.08621	28.3485
3.08437	28.3271
3.08254	28.3903
3.08071	28.2393
3.07888	28.141
3.07705	28.2166
3.07523	28.23
3.0734	28.2762
3.07158	28.2671
3.06977	28.1607
3.06795	28.0787
3.06613	27.9978
3.06432	28.0173
3.06251	28.058
3.0607	28.0795
3.0589	28.0181
3.0571	27.9309
3.05529	27.956
3.05349	27.9144
3.0517	27.8304
3.0499	27.8112
3.04811	27.7815
3.04632	27.8294
3.04453	27.7787
3.04274	27.6433
3.04096	27.5758
3.03918	27.4884
3.0374	27.5817
3.03562	27.6547
3.03384	27.5845
3.03207	27.4992
3.03029	27.4656
3.02852	27.4331
3.02676	27.3674
3.02499	27.3813
3.02323	27.3402
3.02146	27.3469
3.0197	27.3035
3.01795	27.1998
3.01619	27.201
3.01444	27.2371
3.01269	27.1703
3.01094	27.1663
3.00919	27.2252
3.00744	27.2012
3.0057	27.0606
3.00396	26.9918
3.00222	26.9287
3.00048	26.8217
2.99875	26.8452
2.99701	26.9328
2.99528	26.8966
2.99355	26.895
2.99183	26.9
2.9901	26.8415
2.98838	26.7635
2.98666	26.6294
2.98494	26.5148
2.98322	26.5366
2.9815	26.5924
2.97979	26.5466
2.97808	26.5582
2.97637	26.6205
2.97466	26.6132
2.97295	26.4391
2.97125	26.3698
2.96955	26.453
2.96785	26.46
2.96615	26.4284
2.96446	26.3771
2.96276	26.2749
2.96107	26.1786
2.95938	26.1135
2.95769	26.105
2.95601	26.1587
2.95432	26.2555
2.95264	26.2804
2.95096	26.1299
2.94928	26.0866
2.9476	26.155
2.94593	26.2184
2.94425	26.3196
2.94258	26.1964
2.94092	25.9527
2.93925	25.8994
2.93758	25.9604
2.93592	25.9546
2.93426	26.0107
2.9326	26.1035
2.93094	26.1805
2.92928	26.2034
2.92763	26.1495
2.92598	26.1073
2.92433	26.1315
2.92268	26.2427
2.92103	26.1948
2.91939	26.1333
2.91775	26.2042
2.9161	26.1112
2.91447	25.9228
2.91283	26.0263
2.91119	26.161
2.90956	26.2026
2.90793	26.251
2.9063	26.252
2.90467	26.0849
2.90304	26.0288
2.90142	26.152
2.89979	26.15
2.89817	26.1087
2.89656	26.1747
2.89494	26.2605
2.89332	26.3699
2.89171	26.54
2.8901	26.648
2.88849	26.7163
2.88688	26.7674
2.88527	26.7233
2.88367	26.7574
2.88206	26.8295
2.88046	26.789
2.87886	26.8252
2.87727	26.9134
2.87567	27.001
2.87408	27.0919
2.87248	27.1928
2.87089	27.2209
2.8693	27.2566
2.86772	27.3444
2.86613	27.2953
2.86455	27.2547
2.86297	27.2741
2.86139	27.327
2.85981	27.4389
2.85823	27.5564
2.85666	27.6959
2.85508	27.7085
2.85351	27.6939
2.85194	27.7339
2.85038	27.7654
2.84881	27.7017
2.84724	27.599
2.84568	27.7399
2.84412	27.9186
2.84256	27.99
2.841	28.1199
2.83945	28.2376
2.83789	28.2195
2.83634	28.2715
2.83479	28.5258
2.83324	28.7098
2.83169	28.774
2.83015	28.7939
2.82861	28.801
2.82706	28.7548
2.82552	28.8334
2.82398	29.0175
2.82245	29.1531
2.82091	29.3364
2.81938	29.5391
2.81784	29.6597
2.81631	29.8246
2.81479	29.9462
2.81326	29.9952
2.81173	30.1245
2.81021	30.3833
2.80869	30.38
2.80716	30.3279
2.80565	30.5173
2.80413	30.7696
2.80261	30.7058
2.8011	30.6202
2.79959	30.7673
2.79808	30.9021
2.79657	31.023
2.79506	31.2245
2.79355	31.3313
2.79205	31.299
2.79055	31.4369
2.78904	31.6791
2.78754	31.994
2.78605	32.137
2.78455	32.0285
2.78306	31.9592
2.78156	32.0728
2.78007	32.2166
2.77858	32.3661
2.77709	32.5513
2.77561	32.6837
2.77412	32.6382
2.77264	32.8701
2.77116	33.2811
2.76968	33.2828
2.7682	33.2816
2.76672	33.2895
2.76524	33.3629
2.76377	33.778
2.7623	33.9449
2.76083	33.9246
2.75936	34.0469
2.75789	34.2819
2.75642	34.5726
2.75496	34.7627
2.7535	34.5714
2.75203	34.6076
2.75057	34.6957
2.74912	34.6979
2.74766	34.8647
2.7462	35.1549
2.74475	35.2296
2.7433	35.3198
2.74185	35.7826
2.7404	36.069
2.73895	36.0002
2.7375	35.89
2.73606	36.0172
2.73462	36.2346
2.73318	36.293
2.73174	36.344
2.7303	36.3285
2.72886	36.428
2.72742	36.6735
2.72599	37.0607
2.72456	37.3338
2.72313	37.1908
2.7217	37.53
2.72027	37.8854
2.71884	37.6573
2.71742	37.5222
2.71599	37.4478
2.71457	37.5407
2.71315	37.616
2.71173	37.945
2.71032	38.2022
2.7089	38.0132
2.70748	37.8017
2.70607	37.7954
2.70466	37.8974
2.70325	38.0718
2.70184	38.2194
2.70043	38.0946
2.69903	38.1354
2.69762	38.3025
2.69622	38.4553
2.69482	38.6147
2.69342	38.6518
2.69202	38.414
2.69062	38.3149
2.68923	38.4714
2.68783	38.5773
2.68644	38.554
2.68505	38.5065
2.68366	38.4663
2.68227	38.272
2.68089	38.3347
2.6795	38.6892
2.67812	38.7402
2.67673	38.6735
2.67535	38.4189
2.67397	38.2624
2.6726	38.358
2.67122	38.9183
2.66984	38.8743
2.66847	38.446
2.6671	38.6329
2.66572	38.5731
2.66435	38.0709
2.66299	37.6357
2.66162	37.7275
2.66025	37.7367
2.65889	37.5393
2.65753	37.3984
2.65616	37.5016
2.65481	37.5252
2.65345	37.5233
2.65209	37.4362
2.65073	37.2691
2.64938	37.2244
2.64803	37.2824
2.64667	37.4698
2.64532	37.4359
2.64397	37.2963
2.64263	37.4027
2.64128	37.4951
2.63994	37.5475
2.63859	37.5646
2.63725	37.7471
2.63591	37.8664
2.63457	37.9666
2.63323	37.9587
2.6319	38.0389
2.63056	38.2776
2.62923	38.042
2.62789	37.9094
2.62656	38.0278
2.62523	37.743
2.6239	37.6175
2.62258	37.6831
2.62125	38.1225
2.61993	38.228
2.6186	38.1097
2.61728	38.3483
2.61596	38.1721
2.61464	37.8911
2.61332	37.8567
2.61201	37.826
2.61069	37.991
2.60938	38.0912
2.60807	38.1091
2.60675	38.1869
2.60544	38.4114
2.60414	38.285
2.60283	38.2113
2.60152	38.1931
2.60022	38.0989
2.59891	38.0351
2.59761	38.1123
2.59631	38.6161
2.59501	39.1816
2.59371	38.828
2.59242	38.3686
2.59112	38.1682
2.58983	38.0857
2.58853	38.2501
2.58724	38.3819
2.58595	38.3424
2.58466	38.5368
2.58338	38.575
2.58209	38.4265
2.5808	38.4144
2.57952	38.2878
2.57824	38.3958
2.57695	38.41
2.57567	38.2915
2.5744	38.4714
2.57312	38.5312
2.57184	38.3112
2.57057	38.4446
2.56929	38.4904
2.56802	38.4207
2.56675	38.4941
2.56548	38.6544
2.56421	38.7451
2.56294	38.7568
2.56168	38.7848
2.56041	38.7069
2.55915	38.5583
2.55789	38.4205
2.55662	38.4553
2.55536	38.4963
2.5541	38.4012
2.55285	38.5111
2.55159	38.6095
2.55034	38.5264
2.54908	38.5177
2.54783	38.4745
2.54658	38.5059
2.54533	38.4828
2.54408	38.4963
2.54283	38.6279
2.54159	38.5831
2.54034	38.385
2.5391	38.3664
2.53785	38.3783
2.53661	38.3989
2.53537	38.4473
2.53413	38.4844
2.53289	38.533
2.53166	38.5644
2.53042	38.4511
2.52919	38.4386
2.52795	38.5847
2.52672	38.5553
2.52549	38.4578
2.52426	38.4374
2.52303	38.3587
2.52181	38.3585
2.52058	38.454
2.51936	38.6119
2.51813	38.5258
2.51691	38.3047
2.51569	38.2509
2.51447	38.1716
2.51325	38.2005
2.51203	38.2153
2.51082	38.2605
2.5096	38.2493
2.50839	38.2202
2.50717	38.1841
2.50596	38.191
2.50475	38.2699
2.50354	38.2864
2.50233	38.2783
2.50113	38.2221
2.49992	38.1734
2.49872	38.1252
2.49751	38.1155
2.49631	38.0539
2.49511	38.0321
2.49391	38.1788
2.49271	38.3325
2.49151	38.2844
2.49031	38.2126
2.48912	38.2937
2.48792	38.086
2.48673	37.8795
2.48554	37.9389
2.48435	37.9265
2.48316	37.8147
2.48197	37.9154
2.48078	38.011
2.4796	38.0541
2.47841	37.9644
2.47723	37.7895
2.47604	37.7101
2.47486	37.7999
2.47368	37.9074
2.4725	37.9009
2.47132	37.9108
2.47014	38.008
2.46897	37.9717
2.46779	37.8094
2.46662	37.7653
2.46545	37.8014
2.46427	37.7925
2.4631	37.7921
2.46193	37.8516
2.46077	37.8644
2.4596	37.8165
2.45843	37.881
2.45727	37.9038
2.4561	37.8148
2.45494	37.895
2.45378	38.0071
2.45262	37.9402
2.45146	37.8996
2.4503	37.8788
2.44914	37.8383
2.44799	37.8184
2.44683	37.8252
2.44568	37.8505
2.44452	37.8977
2.44337	37.8808
2.44222	37.9088
2.44107	37.9762
2.43992	38.023
2.43877	37.9823
2.43763	37.9382
2.43648	37.8338
2.43534	37.8276
2.43419	38.0048
2.43305	38.0726
2.43191	37.9755
2.43077	37.9338
2.42963	37.9406
2.42849	38.0063
2.42736	38.0228
2.42622	37.96
2.42509	37.7741
2.42395	37.7217
2.42282	37.6449
2.42169	37.7161
2.42056	37.8413
2.41943	37.8146
2.4183	37.7708
2.41717	37.8151
2.41605	37.9826
2.41492	38.0646
2.4138	38.0337
2.41267	37.9218
2.41155	37.9896
2.41043	38.0173
2.40931	38.0538
2.40819	38.0997
2.40707	38.115
2.40595	38.0987
2.40484	37.984
2.40372	37.8246
2.40261	37.9177
2.4015	37.9787
2.40039	37.8964
2.39928	37.9697
2.39817	38.0359
2.39706	38.0608
2.39595	38.0648
2.39484	38.0267
2.39374	38.0628
2.39263	38.1308
2.39153	38.1639
2.39043	38.244
2.38932	38.1567
2.38822	38.0362
2.38712	37.8647
2.38603	37.9319
2.38493	38.0827
2.38383	38.1483
2.38274	38.0426
2.38164	38.0699
2.38055	38.2506
2.37946	38.231
2.37836	38.1058
2.37727	38.0883
2.37618	38.0624
2.3751	38.0895
2.37401	38.1101
2.37292	38.1308
2.37184	38.1834
2.37075	38.2421
2.36967	38.2633
2.36859	38.2214
2.3675	38.2343
2.36642	38.159
2.36534	38.138
2.36427	38.2547
2.36319	38.211
2.36211	38.1692
2.36104	38.1128
2.35996	37.9491
2.35889	38.0117
2.35781	38.1298
2.35674	38.062
2.35567	38.0561
2.3546	38.2405
2.35353	38.3145
2.35247	38.2802
2.3514	38.2698
2.35033	38.3185
2.34927	38.2086
2.3482	38.0447
2.34714	37.9577
2.34608	38.0812
2.34502	38.2609
2.34396	38.2535
2.3429	37.9941
2.34184	38.1106
2.34078	38.1311
2.33973	38.0417
2.33867	38.1631
2.33762	38.3191
2.33656	38.3664
2.33551	38.2006
2.33446	38.1177
2.33341	38.1086
2.33236	38.1188
2.33131	38.211
2.33026	38.374
2.32922	38.3384
2.32817	38.244
2.32712	38.167
2.32608	38.2605
2.32504	38.3373
2.324	38.1855
2.32295	38.0938
2.32191	38.1913
2.32087	38.1526
2.31984	38.1531
2.3188	38.332
2.31776	38.4298
2.31673	38.2813
2.31569	38.2252
2.31466	38.2486
2.31362	38.1517
2.31259	38.1139
2.31156	38.2129
2.31053	38.1744
2.3095	38.1524
2.30847	38.2279
2.30745	38.1935
2.30642	38.2455
2.3054	38.1869
2.30437	38.258
2.30335	38.3074
2.30232	38.3473
2.3013	38.4077
2.30028	38.2815
2.29926	38.1358
2.29824	38.1364
2.29722	38.0968
2.29621	38.1412
2.29519	38.0625
2.29417	38.0961
2.29316	38.1162
2.29215	38.2125
2.29113	38.2515
2.29012	38.2909
2.28911	38.261
2.2881	38.2166
2.28709	38.264
2.28608	38.2568
2.28507	38.1173
2.28407	38.1134
2.28306	38.0197
2.28206	38.0946
2.28105	38.2194
2.28005	38.1058
2.27905	38.1127
2.27805	38.1492
2.27705	38.0818
2.27605	38.1678
2.27505	38.199
2.27405	38.1791
2.27305	38.2568
2.27206	38.3203
2.27106	38.219
2.27007	38.1031
2.26907	38.0512
2.26808	37.8801
2.26709	37.9235
2.2661	38.1225
2.26511	38.1119
2.26412	38.0939
2.26313	38.1134
2.26214	38.0533
2.26116	38.0451
2.26017	37.9164
2.25919	37.943
2.2582	38.2152
2.25722	38.1718
2.25624	38.0342
2.25526	38.0709
2.25428	38.0887
2.2533	38.0955
2.25232	38.0826
2.25134	37.9967
2.25036	38.0562
2.24939	38.131
2.24841	38.1867
2.24744	38.1647
2.24646	38.0749
2.24549	38.095
2.24452	37.9472
2.24355	37.9786
2.24257	37.948
2.24161	38.077
2.24064	38.166
2.23967	37.984
2.2387	38.0343
2.23774	38.2405
2.23677	38.1553
2.23581	38.0903
2.23484	38.1161
2.23388	38.1597
2.23292	38.2444
2.23196	38.2276
2.231	37.9731
2.23004	37.8622
2.22908	37.8837
2.22812	37.8415
2.22716	37.998
2.22621	38.2265
2.22525	38.3163
2.2243	38.287
2.22334	38.2725
2.22239	38.354
2.22144	38.1192
2.22049	37.9258
2.21953	37.9775
2.21859	38.0578
2.21764	38.1126
2.21669	38.1374
2.21574	38.1284
2.21479	38.0407
2.21385	38.0439
2.2129	38.155
2.21196	38.1102
2.21102	37.8924
2.21007	37.895
2.20913	37.9461
2.20819	37.8297
2.20725	37.9377
2.20631	38.112
2.20537	38.1379
2.20444	38.1413
2.2035	38.1677
2.20256	38.035
2.20163	38.0075
2.20069	38.1247
2.19976	38.0283
2.19883	38.0215
2.19789	38.1755
2.19696	37.9727
2.19603	37.8423
2.1951	37.942
2.19417	38.0849
2.19325	38.1733
2.19232	38.1233
2.19139	37.9954
2.19047	38.0442
2.18954	38.0274
2.18862	37.9592
2.18769	38.049
2.18677	38.1069
2.18585	37.9903
2.18493	37.9319
2.18401	38.0552
2.18309	38.0055
2.18217	37.8759
2.18125	37.9746
2.18033	38.0451
2.17942	38.1454
2.1785	38.238
2.17759	38.1297
2.17667	38.0517
2.17576	37.9623
2.17485	37.8126
2.17393	37.8182
2.17302	37.974
2.17211	38.0359
2.1712	38.2548
2.17029	38.3195
2.16939	38.2292
2.16848	38.0819
2.16757	37.8722
2.16667	37.6981
2.16576	37.7809
2.16486	37.9169
2.16395	37.9559
2.16305	38.0119
2.16215	38.0133
2.16125	38.0534
2.16035	38.1553
2.15945	38.0308
2.15855	37.7995
2.15765	37.8295
2.15675	38.0937
2.15586	38.2007
2.15496	38.1644
2.15406	38.1133
2.15317	38.0967
2.15228	38.0963
2.15138	37.9937
2.15049	38.0152
2.1496	37.9183
2.14871	37.7747
2.14782	37.9363
2.14693	38.0609
2.14604	38.1002
2.14515	38.156
2.14427	38.104
2.14338	37.8705
2.14249	37.7314
2.14161	37.7727
2.14072	37.9972
2.13984	38.0156
2.13896	37.9163
2.13808	38.0855
2.13719	38.0532
2.13631	38.0396
2.13543	38.0155
2.13455	37.8525
2.13368	37.8804
2.1328	37.9652
2.13192	37.9022
2.13105	37.8144
2.13017	37.9378
2.1293	37.9163
2.12842	37.8731
2.12755	38.0231
2.12668	38.2119
2.1258	38.0879
2.12493	37.8733
2.12406	38.0045
2.12319	37.9648
2.12232	37.7971
2.12145	37.7898
2.12059	37.7567
2.11972	37.865
2.11885	37.8753
2.11799	37.8055
2.11712	37.8544
2.11626	38.0118
2.1154	38.0719
2.11453	37.8596
2.11367	37.6977
2.11281	37.9685
2.11195	37.9389
2.11109	37.7904
2.11023	37.8283
2.10937	37.8168
2.10851	37.7577
2.10766	37.7395
2.1068	37.7344
2.10594	37.7303
2.10509	37.839
2.10423	38.0894
2.10338	37.9673
2.10253	37.8147
2.10168	37.8145
2.10082	37.888
2.09997	37.9589
2.09912	37.9071
2.09827	37.7985
2.09742	37.7546
2.09658	37.7385
2.09573	37.9362
2.09488	38.0231
2.09404	37.766
2.09319	37.5338
2.09235	37.5391
2.0915	37.5991
2.09066	37.7943
2.08982	37.9587
2.08897	37.8947
2.08813	37.8862
2.08729	37.9393
2.08645	37.6842
2.08561	37.5096
2.08477	37.6324
2.08394	37.8071
2.0831	37.7937
2.08226	37.7271
2.08143	37.7594
2.08059	37.781
2.07976	37.7767
2.07892	37.6419
2.07809	37.5152
2.07726	37.6373
2.07643	37.8695
2.07559	37.8269
2.07476	37.8939
2.07393	37.8445
2.0731	37.4987
2.07228	37.4929
2.07145	37.8691
2.07062	38.049
2.06979	37.7982
2.06897	37.8285
2.06814	37.7897
2.06732	37.819
2.06649	38.1066
2.06567	38.0421
2.06485	37.8794
2.06403	37.8433
2.0632	37.6415
2.06238	37.591
2.06156	37.6483
2.06074	37.7397
2.05993	37.7347
2.05911	37.8321
2.05829	37.8149
2.05747	37.8983
2.05666	38.0776
2.05584	37.9616
2.05503	37.6349
2.05421	37.1804
2.0534	37.3069
2.05259	37.8007
2.05177	38.0713
2.05096	38.0187
2.05015	37.84
2.04934	37.7908
2.04853	37.8145
2.04772	37.626
2.04691	37.4712
2.04611	37.7757
2.0453	37.8071
2.04449	37.6535
2.04369	37.7388
2.04288	37.8453
2.04208	37.8657
2.04127	37.8059
2.04047	37.5936
2.03967	37.5382
2.03886	37.6564
2.03806	37.6353
2.03726	37.5763
2.03646	37.5038
2.03566	37.5078
2.03486	37.4975
2.03407	37.5994
2.03327	37.6603
2.03247	37.639
2.03167	37.8715
2.03088	37.8925
2.03008	37.4473
2.02929	37.5322
2.0285	37.8045
2.0277	37.6189
2.02691	37.5888
2.02612	37.5479
2.02533	37.7182
2.02453	37.8
2.02374	37.685
2.02295	37.7262
2.02217	37.7194
2.02138	37.7027
2.02059	37.8047
2.0198	37.772
2.01902	37.4033
2.01823	37.4183
2.01744	37.5642
2.01666	37.7258
2.01588	37.8066
2.01509	37.5779
2.01431	37.5779
2.01353	37.7863
2.01275	37.7063
2.01196	37.4478
2.01118	37.7018
2.0104	37.8022
2.00963	37.7392
2.00885	37.8241
2.00807	37.9845
2.00729	37.7887
2.00651	37.5767
2.00574	37.6837
2.00496	37.701
2.00419	37.4937
2.00341	37.3812
2.00264	37.3717
2.00187	37.5626
2.00109	37.7588
2.00032	37.8053
